SpectraSuite Data File
++++++++++++++++++++++++++++++++++++
Date: Fri Feb 07 18:56:53 EST 2020
User: BHM
Dark Spectrum Present: No
Reference Spectrum Present: No
Number of Sampled Component Spectra: 1
Spectrometers: USB4H07074
Integration Time (usec): 1000000 (USB4H07074)
Spectra Averaged: 1 (USB4H07074)
Boxcar Smoothing: 0 (USB4H07074)
Correct for Electrical Dark: No (USB4H07074)
Strobe/Lamp Enabled: No (USB4H07074)
Correct for Detector Non-linearity: No (USB4H07074)
Correct for Stray Light: No (USB4H07074)
Number of Pixels in Processed Spectrum: 3648
>>>>>Begin Processed Spectral Data<<<<<
194.67	1236.97
194.89	1236.97
195.11	1236.97
195.33	1116.14
195.55	1220.59
195.77	2308.06
195.99	2349.02
196.21	1925.09
196.42	2019.30
196.64	2316.25
196.86	2285.53
197.08	2052.06
197.30	2207.71
197.52	2144.22
197.74	2015.20
197.96	1880.04
198.18	1974.24
198.40	2289.63
198.61	2387.93
198.83	2312.16
199.05	2131.94
199.27	2258.91
199.49	2529.24
199.71	2330.59
199.93	2107.36
200.15	2369.50
200.37	2385.88
200.58	2043.87
200.80	2369.50
201.02	2385.88
201.24	2301.92
201.46	2349.02
201.68	2224.09
201.90	2179.04
202.12	2545.63
202.34	2377.69
202.55	2500.57
202.77	2318.30
202.99	2289.63
203.21	2250.72
203.43	2484.19
203.65	2195.42
203.87	2328.54
204.09	2392.03
204.30	2613.21
204.52	2633.69
204.74	2273.25
204.96	2101.22
205.18	2265.05
205.40	2439.13
205.62	2158.56
205.84	2469.85
206.05	2271.20
206.27	2420.70
206.49	2387.93
206.71	2211.81
206.93	2275.29
207.15	2602.97
207.37	2523.10
207.58	2359.26
207.80	1945.57
208.02	2404.32
208.24	2265.05
208.46	2013.15
208.68	2113.50
208.90	2590.68
209.11	2357.21
209.33	2013.15
209.55	2234.33
209.77	2174.94
209.99	2283.49
210.21	2179.04
210.43	2099.17
210.64	2445.27
210.86	2379.74
211.08	2023.39
211.30	2394.08
211.52	2365.40
211.74	2336.73
211.95	2191.33
212.17	2373.60
212.39	2316.25
212.61	2465.75
212.83	2033.63
213.05	2113.50
213.26	2322.40
213.48	2263.01
213.70	2074.59
213.92	2129.89
214.14	2502.62
214.36	2174.94
214.57	2002.91
214.79	2369.50
215.01	2461.66
215.23	2494.43
215.45	2209.76
215.67	2117.60
215.88	2478.04
216.10	2506.71
216.32	1933.28
216.54	2047.97
216.76	2222.05
216.97	2344.92
217.19	2088.93
217.41	2176.99
217.63	2389.98
217.85	2439.13
218.07	2066.40
218.28	2451.42
218.50	2484.19
218.72	2432.99
218.94	2136.03
219.16	2414.56
219.37	2246.62
219.59	2551.77
219.81	2074.59
220.03	2121.70
220.25	2291.68
220.46	2568.15
220.68	2160.61
220.90	2123.74
221.12	2271.20
221.34	2336.73
221.55	2193.37
221.77	1972.19
221.99	2097.12
222.21	2361.31
222.43	2445.27
222.64	2039.78
222.86	2680.79
223.08	2306.01
223.30	2236.38
223.52	2136.03
223.73	2369.50
223.95	2639.83
224.17	2269.15
224.39	2117.60
224.60	2365.40
224.82	2314.20
225.04	2076.64
225.26	2119.65
225.48	2207.71
225.69	2469.85
225.91	2144.22
226.13	2367.45
226.35	2418.65
226.56	2306.01
226.78	2041.82
227.00	2093.02
227.22	2443.23
227.44	2389.98
227.65	2039.78
227.87	2197.47
228.09	2310.11
228.31	2457.56
228.52	2011.11
228.74	2039.78
228.96	2510.81
229.18	2222.05
229.39	2312.16
229.61	2086.88
229.83	2146.27
230.05	2303.96
230.26	2559.96
230.48	2215.90
230.70	2410.46
230.92	2144.22
231.13	2099.17
231.35	2195.42
231.57	2215.90
231.79	2469.85
232.00	2156.51
232.22	1947.62
232.44	2416.60
232.66	2451.42
232.87	2164.70
233.09	2207.71
233.31	2486.23
233.53	2326.49
233.74	2267.10
233.96	2387.93
234.18	2324.44
234.40	2322.40
234.61	2074.59
234.83	2064.35
235.05	2377.69
235.27	2338.78
235.48	2127.84
235.70	2185.18
235.92	2199.52
236.14	2369.50
236.35	2166.75
236.57	2385.88
236.79	2461.66
237.00	2320.35
237.22	2095.07
237.44	2273.25
237.66	2238.43
237.87	2592.73
238.09	1972.19
238.31	1943.52
238.53	2299.87
238.74	2330.59
238.96	2043.87
239.18	2205.66
239.39	2246.62
239.61	2437.08
239.83	2058.21
240.05	2195.42
240.26	2181.09
240.48	2392.03
240.70	2263.01
240.91	2312.16
241.13	2306.01
241.35	2045.92
241.56	2066.40
241.78	2162.66
242.00	2416.60
242.22	2414.56
242.43	2392.03
242.65	2461.66
242.87	2340.83
243.08	2416.60
243.30	2183.13
243.52	2174.94
243.73	2727.89
243.95	2613.21
244.17	2185.18
244.39	2021.35
244.60	2355.16
244.82	2322.40
245.04	2047.97
245.25	1986.53
245.47	2291.68
245.69	2265.05
245.90	2074.59
246.12	1933.28
246.34	2490.33
246.55	2359.26
246.77	2336.73
246.99	2289.63
247.20	2265.05
247.42	2676.70
247.64	2000.87
247.86	1890.28
248.07	2584.54
248.29	2258.91
248.51	2107.36
248.72	2213.85
248.94	2322.40
249.16	2285.53
249.37	2095.07
249.59	2416.60
249.81	2211.81
250.02	2291.68
250.24	2371.55
250.46	2187.23
250.67	2402.27
250.89	2287.58
251.11	2060.26
251.32	2205.66
251.54	2418.65
251.76	2285.53
251.97	1976.29
252.19	2344.92
252.40	2248.67
252.62	2555.86
252.84	2314.20
253.05	2248.67
253.27	2699.22
253.49	2324.44
253.70	2156.51
253.92	2467.80
254.14	2469.85
254.35	2287.58
254.57	2019.30
254.79	2021.35
255.00	2664.41
255.22	2400.22
255.44	2265.05
255.65	2232.29
255.87	2287.58
256.08	2320.35
256.30	1990.63
256.52	2070.50
256.73	2308.06
256.95	2383.84
257.17	1888.23
257.38	2324.44
257.60	2349.02
257.82	2228.19
258.03	2119.65
258.25	2082.78
258.46	2224.09
258.68	2400.22
258.90	2025.44
259.11	2023.39
259.33	2512.86
259.55	2101.22
259.76	2201.57
259.98	2041.82
260.19	2035.68
260.41	2211.81
260.63	2015.20
260.84	2109.41
261.06	2289.63
261.27	2510.81
261.49	2105.31
261.71	2105.31
261.92	2183.13
262.14	2353.12
262.35	2072.54
262.57	2017.25
262.79	2152.42
263.00	2340.83
263.22	2084.83
263.44	2105.31
263.65	2258.91
263.87	2420.70
264.08	2133.98
264.30	2226.14
264.52	2320.35
264.73	2461.66
264.95	2119.65
265.16	2244.57
265.38	2316.25
265.59	2351.07
265.81	2283.49
266.03	2179.04
266.24	2310.11
266.46	2248.67
266.67	2281.44
266.89	2455.51
267.11	2355.16
267.32	2187.23
267.54	2138.08
267.75	2150.37
267.97	2148.32
268.19	2234.33
268.40	2011.11
268.62	1935.33
268.83	2287.58
269.05	2273.25
269.26	2293.72
269.48	2197.47
269.70	2187.23
269.91	2531.29
270.13	2215.90
270.34	2246.62
270.56	2185.18
270.77	2234.33
270.99	1900.52
271.21	2234.33
271.42	2209.76
271.64	2541.53
271.85	2234.33
272.07	2312.16
272.28	2506.71
272.50	2428.89
272.71	2408.41
272.93	2277.34
273.15	2117.60
273.36	2328.54
273.58	2129.89
273.79	2086.88
274.01	2539.48
274.22	2582.49
274.44	2084.83
274.65	2121.70
274.87	2156.51
275.09	2269.15
275.30	2045.92
275.52	2111.46
275.73	2295.77
275.95	2551.77
276.16	2353.12
276.38	2205.66
276.59	2439.13
276.81	2514.91
277.02	2287.58
277.24	2000.87
277.45	2654.17
277.67	2377.69
277.89	2035.68
278.10	2342.88
278.32	2254.81
278.53	2181.09
278.75	2090.98
278.96	2131.94
279.18	2267.10
279.39	2224.09
279.61	2031.58
279.82	2299.87
280.04	2285.53
280.25	2267.10
280.47	2064.35
280.68	1916.90
280.90	2289.63
281.11	2156.51
281.33	2105.31
281.54	2076.64
281.76	2238.43
281.97	2058.21
282.19	2179.04
282.40	2252.77
282.62	2119.65
282.83	2539.48
283.05	2070.50
283.27	2285.53
283.48	2148.32
283.70	2312.16
283.91	2150.37
284.13	2058.21
284.34	2158.56
284.56	2357.21
284.77	2090.98
284.99	2287.58
285.20	2205.66
285.42	2445.27
285.63	2349.02
285.84	2295.77
286.06	2283.49
286.27	2058.21
286.49	2047.97
286.70	2093.02
286.92	2267.10
287.13	2285.53
287.35	2107.36
287.56	2318.30
287.78	2539.48
287.99	2189.28
288.21	1925.09
288.42	2707.41
288.64	2512.86
288.85	2406.36
289.07	2263.01
289.28	2199.52
289.50	2222.05
289.71	2373.60
289.93	2099.17
290.14	2009.06
290.36	2449.37
290.57	2164.70
290.79	2324.44
291.00	2181.09
291.22	2332.64
291.43	2791.38
291.64	2258.91
291.86	2160.61
292.07	2441.18
292.29	2428.89
292.50	2318.30
292.72	2105.31
292.93	2613.21
293.15	2543.58
293.36	2287.58
293.58	2338.78
293.79	2281.44
294.00	2529.24
294.22	2144.22
294.43	2168.80
294.65	2717.65
294.86	2420.70
295.08	2379.74
295.29	2789.33
295.51	2650.07
295.72	2568.15
295.94	2269.15
296.15	2009.06
296.36	2312.16
296.58	2383.84
296.79	2422.75
297.01	2250.72
297.22	2381.79
297.44	2398.17
297.65	2365.40
297.86	2494.43
298.08	2455.51
298.29	2633.69
298.51	2254.81
298.72	2191.33
298.94	2316.25
299.15	2519.00
299.36	2275.29
299.58	2232.29
299.79	2619.35
300.01	2406.36
300.22	2316.25
300.44	2093.02
300.65	2510.81
300.86	2283.49
301.08	2265.05
301.29	2187.23
301.51	2793.43
301.72	2887.64
301.93	2346.97
302.15	2242.53
302.36	2648.02
302.58	2502.62
302.79	2463.71
303.01	2281.44
303.22	2461.66
303.43	2629.59
303.65	2293.72
303.86	2328.54
304.08	2512.86
304.29	2322.40
304.50	2482.14
304.72	2195.42
304.93	2426.84
305.15	2842.58
305.36	2232.29
305.57	2328.54
305.79	2291.68
306.00	2564.06
306.22	2432.99
306.43	2367.45
306.64	2387.93
306.86	2791.38
307.07	2441.18
307.28	2273.25
307.50	2566.10
307.71	2736.09
307.93	2203.61
308.14	2263.01
308.35	2471.90
308.57	2463.71
308.78	2449.37
309.00	2353.12
309.21	2457.56
309.42	2510.81
309.64	2295.77
309.85	2109.41
310.06	2463.71
310.28	2568.15
310.49	2375.64
310.71	1914.85
310.92	2555.86
311.13	2510.81
311.35	2232.29
311.56	2535.39
311.77	2447.32
311.99	2580.44
312.20	2201.57
312.41	2457.56
312.63	2596.82
312.84	2488.28
313.06	2308.06
313.27	2418.65
313.48	2379.74
313.70	2461.66
313.91	2318.30
314.12	2183.13
314.34	2598.87
314.55	2451.42
314.76	2455.51
314.98	2375.64
315.19	2424.80
315.40	2621.40
315.62	2385.88
315.83	2559.96
316.04	2695.13
316.26	2643.93
316.47	2457.56
316.68	2500.57
316.90	2445.27
317.11	2455.51
317.32	2535.39
317.54	2338.78
317.75	2496.47
317.96	2578.39
318.18	2269.15
318.39	2363.36
318.60	2475.99
318.82	2248.67
319.03	2191.33
319.24	2271.20
319.46	2676.70
319.67	2551.77
319.88	2207.71
320.10	2340.83
320.31	2402.27
320.52	2510.81
320.74	2109.41
320.95	2029.54
321.16	2193.37
321.38	2643.93
321.59	2334.68
321.80	2039.78
322.02	2287.58
322.23	2865.11
322.44	2250.72
322.65	2103.26
322.87	2385.88
323.08	2496.47
323.29	2439.13
323.51	2508.76
323.72	2656.22
323.93	2525.15
324.15	2289.63
324.36	2406.36
324.57	2428.89
324.78	2568.15
325.00	2482.14
325.21	2322.40
325.42	2451.42
325.64	2451.42
325.85	2263.01
326.06	2121.70
326.28	2344.92
326.49	2379.74
326.70	2299.87
326.91	2344.92
327.13	2510.81
327.34	2533.34
327.55	2457.56
327.77	2207.71
327.98	2547.67
328.19	2432.99
328.40	2254.81
328.62	2166.75
328.83	2490.33
329.04	2322.40
329.25	2203.61
329.47	2197.47
329.68	2471.90
329.89	2473.95
330.11	2224.09
330.32	2252.77
330.53	2279.39
330.74	2662.36
330.96	2295.77
331.17	2146.27
331.38	2609.11
331.59	2320.35
331.81	2293.72
332.02	2248.67
332.23	2369.50
332.44	2408.41
332.66	2555.86
332.87	1986.53
333.08	2424.80
333.29	2549.72
333.51	2633.69
333.72	2179.04
333.93	2265.05
334.14	2652.12
334.36	2441.18
334.57	2361.31
334.78	2547.67
334.99	2682.84
335.21	2437.08
335.42	2344.92
335.63	2615.26
335.84	2502.62
336.06	2273.25
336.27	2228.19
336.48	2277.34
336.69	2600.92
336.91	2287.58
337.12	2322.40
337.33	2539.48
337.54	2328.54
337.75	2656.22
337.97	2144.22
338.18	2478.04
338.39	2308.06
338.60	2201.57
338.82	2539.48
339.03	2432.99
339.24	2375.64
339.45	2287.58
339.66	2209.76
339.88	2815.96
340.09	2385.88
340.30	2306.01
340.51	2355.16
340.73	2514.91
340.94	2717.65
341.15	2224.09
341.36	2353.12
341.57	2412.51
341.79	2441.18
342.00	2269.15
342.21	2287.58
342.42	2058.21
342.63	2424.80
342.85	2392.03
343.06	2318.30
343.27	2334.68
343.48	2367.45
343.69	2205.66
343.91	2426.84
344.12	2584.54
344.33	2301.92
344.54	2637.78
344.75	2133.98
344.97	2359.26
345.18	2316.25
345.39	2308.06
345.60	2281.44
345.81	2363.36
346.02	2283.49
346.24	2486.23
346.45	2387.93
346.66	2381.79
346.87	2387.93
347.08	2043.87
347.30	2142.18
347.51	2416.60
347.72	2424.80
347.93	2234.33
348.14	2379.74
348.35	2303.96
348.57	2355.16
348.78	1972.19
348.99	2287.58
349.20	2183.13
349.41	2662.36
349.62	2768.85
349.84	2381.79
350.05	2299.87
350.26	2314.20
350.47	2310.11
350.68	2232.29
350.89	2412.51
351.11	2392.03
351.32	2295.77
351.53	2248.67
351.74	2383.84
351.95	2695.13
352.16	2326.49
352.37	2297.82
352.59	2269.15
352.80	2541.53
353.01	2125.79
353.22	2475.99
353.43	2392.03
353.64	2439.13
353.86	2269.15
354.07	2437.08
354.28	2265.05
354.49	2449.37
354.70	2367.45
354.91	2146.27
355.12	2496.47
355.33	2543.58
355.55	2107.36
355.76	2383.84
355.97	2416.60
356.18	2549.72
356.39	2285.53
356.60	2201.57
356.81	2426.84
357.03	2482.14
357.24	2308.06
357.45	2506.71
357.66	2412.51
357.87	2590.68
358.08	2322.40
358.29	2258.91
358.50	2516.95
358.71	2680.79
358.93	2449.37
359.14	2265.05
359.35	3229.65
359.56	2484.19
359.77	2576.34
359.98	2494.43
360.19	2858.96
360.40	2957.27
360.61	2969.55
360.83	2824.15
361.04	3082.19
361.25	3303.37
361.46	3182.54
361.67	2957.27
361.88	3450.83
362.09	3330.00
362.30	3577.80
362.51	3889.09
362.72	3901.38
362.94	4593.59
363.15	4609.98
363.36	4829.11
363.57	4614.07
363.78	4767.67
363.99	4894.65
364.20	4530.11
364.41	4612.03
364.62	4753.34
364.83	4673.46
365.04	4288.45
365.26	4253.63
365.47	4159.42
365.68	4108.23
365.89	3985.35
366.10	3995.59
366.31	4462.52
366.52	3727.30
366.73	3887.04
366.94	3753.93
367.15	3297.23
367.36	3153.87
367.57	3098.58
367.78	3067.86
367.99	3061.71
368.21	2621.40
368.42	2760.66
368.63	2815.96
368.84	2994.13
369.05	2795.48
369.26	2627.54
369.47	2789.33
369.68	2963.41
369.89	2588.63
370.10	2805.72
370.31	3303.37
370.52	2869.20
370.73	2543.58
370.94	2818.00
371.15	2840.53
371.36	2797.53
371.57	2658.26
371.78	2766.81
371.99	2861.01
372.20	3139.54
372.42	2947.03
372.63	2746.33
372.84	2707.41
373.05	2715.61
373.26	2631.64
373.47	2840.53
373.68	2858.96
373.89	2822.10
374.10	2547.67
374.31	2994.13
374.52	2885.59
374.73	2869.20
374.94	2858.96
375.15	3047.38
375.36	2809.81
375.57	2791.38
375.78	2793.43
375.99	2844.63
376.20	2850.77
376.41	3049.43
376.62	3024.85
376.83	3049.43
377.04	3084.24
377.25	3446.73
377.46	3221.45
377.67	3334.09
377.88	3532.75
378.09	3985.35
378.30	3395.53
378.51	3792.84
378.72	3710.92
378.93	4147.14
379.14	3663.82
379.35	3704.78
379.56	4106.18
379.77	4403.13
379.98	4169.66
380.19	4274.11
380.40	4054.98
380.61	4159.42
380.82	4194.24
381.03	4229.06
381.24	4423.61
381.45	4104.13
381.66	4116.42
381.87	4089.79
382.08	3944.39
382.29	3901.38
382.50	3829.70
382.71	4075.46
382.92	3741.64
383.13	3962.82
383.34	3641.29
383.55	3508.17
383.76	3477.45
383.97	3563.47
384.18	3602.38
384.39	3499.98
384.60	3538.89
384.81	3446.73
385.02	3233.74
385.23	3272.65
385.44	3260.37
385.65	3749.83
385.86	3368.91
386.07	3094.48
386.28	3092.43
386.49	2916.31
386.70	3125.20
386.91	3035.09
387.11	3229.65
387.32	3080.14
387.53	2947.03
387.74	3239.89
387.95	3170.26
388.16	3170.26
388.37	3416.01
388.58	3225.55
388.79	3190.74
389.00	3174.35
389.21	3209.17
389.42	2942.93
389.63	2863.06
389.84	3395.53
390.05	3016.66
390.26	3102.67
390.47	2912.21
390.68	3145.68
390.89	2994.13
391.09	3164.11
391.30	3096.53
391.51	3362.76
391.72	3084.24
391.93	3264.46
392.14	3254.22
392.35	3061.71
392.56	3491.79
392.77	3104.72
392.98	3065.81
393.19	3241.93
393.40	3436.49
393.61	3059.67
393.82	3465.16
394.02	3256.27
394.23	3221.45
394.44	3188.69
394.65	3430.35
394.86	3356.62
395.07	3303.37
395.28	3162.06
395.49	3301.33
395.70	3493.83
395.91	3747.78
396.12	3319.76
396.32	3672.01
396.53	3577.80
396.74	3493.83
396.95	3669.96
397.16	4161.47
397.37	3688.39
397.58	3948.48
397.79	3600.33
398.00	3878.85
398.21	4171.71
398.41	4095.94
398.62	4132.80
398.83	4046.79
399.04	4937.65
399.25	4487.10
399.46	4366.27
399.67	4366.27
399.88	4771.77
400.09	4618.17
400.29	4769.72
400.50	4968.37
400.71	4661.18
400.92	4894.65
401.13	4941.75
401.34	5334.96
401.55	5119.92
401.76	5361.58
401.96	5322.67
402.17	5732.26
402.38	5922.73
402.59	5986.21
402.80	5869.48
403.01	6352.80
403.22	6401.95
403.43	6815.64
403.63	6467.49
403.84	7190.42
404.05	7327.63
404.26	7409.55
404.47	7442.32
404.68	7817.10
404.89	8202.11
405.09	8202.11
405.30	8671.10
405.51	8925.05
405.72	9557.87
405.93	9578.35
406.14	9842.54
406.35	10620.77
406.55	10807.13
406.76	11048.79
406.97	11392.85
407.18	12070.73
407.39	12461.89
407.60	13068.09
407.80	13080.38
408.01	13965.10
408.22	14200.62
408.43	14440.23
408.64	15230.74
408.85	15875.85
409.05	16146.19
409.26	17407.73
409.47	17233.66
409.68	17846.00
409.89	18206.44
410.10	19089.12
410.30	19607.25
410.51	20463.30
410.72	21114.56
410.93	21386.94
411.14	22175.41
411.35	22675.11
411.55	23230.11
411.76	24188.56
411.97	25093.76
412.18	26353.26
412.39	26529.39
412.59	27266.66
412.80	27584.09
413.01	29005.38
413.22	29740.60
413.43	30088.76
413.63	30563.89
413.84	31702.56
414.05	32396.82
414.26	33238.53
414.47	33644.03
414.67	35177.96
414.88	35567.07
415.09	36138.46
415.30	36818.38
415.51	37823.93
415.71	38471.09
415.92	39241.13
416.13	39642.53
416.34	40289.69
416.55	40773.01
416.75	41901.44
416.96	41872.77
417.17	42962.29
417.38	44053.86
417.59	44590.42
417.79	44803.41
418.00	45708.61
418.21	46171.46
418.42	47166.77
418.62	47844.65
418.83	48526.62
419.04	48164.13
419.25	49587.47
419.46	50052.36
419.66	50400.51
419.87	50482.43
420.08	51565.81
420.29	50881.78
420.49	52255.97
420.70	53007.58
420.91	52798.68
421.12	53454.03
421.32	53599.44
421.53	54367.43
421.74	54801.60
421.95	54463.68
422.15	54895.80
422.36	55321.78
422.57	56118.44
422.78	55172.28
422.98	56718.49
423.19	57275.54
423.40	56415.40
423.61	57539.73
423.81	58459.27
424.02	57175.19
424.23	58225.80
424.44	58010.76
424.64	57873.55
424.85	58250.38
425.06	58727.55
425.27	57879.69
425.47	59069.56
425.68	58590.34
425.89	59300.98
426.10	59757.68
426.30	59262.07
426.51	59122.81
426.72	59933.81
426.92	59942.00
427.13	60183.66
427.34	59901.04
427.55	60019.82
427.75	60093.55
427.96	59794.54
428.17	60781.66
428.38	60376.17
428.58	60146.79
428.79	60335.21
429.00	60634.21
429.20	60957.79
429.41	60224.62
429.62	59815.02
429.82	59923.57
430.03	60449.89
430.24	60429.41
430.45	61056.09
430.65	61389.91
430.86	61865.04
431.07	60812.38
431.27	60961.89
431.48	61445.21
431.69	60685.41
431.90	60468.33
432.10	60716.13
432.31	61084.76
432.52	60322.92
432.72	61066.33
432.93	61031.52
433.14	60271.72
433.34	61035.61
433.55	59948.14
433.76	60896.35
433.96	61221.98
434.17	60257.38
434.38	61359.19
434.58	60673.12
434.79	60556.39
435.00	60709.99
435.21	60843.10
435.41	61566.04
435.62	60331.11
435.83	61043.80
436.03	59569.27
436.24	60742.75
436.45	60892.25
436.65	60075.12
436.86	60824.67
437.07	60226.66
437.27	60255.34
437.48	61158.49
437.69	60638.31
437.89	60843.10
438.10	60005.48
438.31	61021.28
438.51	60310.63
438.72	60382.31
438.92	60271.72
439.13	59749.49
439.34	60255.34
439.54	61074.52
439.75	60558.44
439.96	58807.42
440.16	59233.40
440.37	60150.89
440.58	59331.70
440.78	59044.99
440.99	58383.49
441.20	59915.37
441.40	59327.61
441.61	58688.64
441.82	59008.12
442.02	58672.26
442.23	58401.92
442.43	59081.85
442.64	59593.84
442.85	59049.08
443.05	58713.22
443.26	59475.06
443.47	57906.32
443.67	58385.54
443.88	58745.98
444.08	58506.37
444.29	57519.25
444.50	58025.10
444.70	56781.98
444.91	57384.08
445.12	57095.32
445.32	56804.51
445.53	56972.44
445.73	56964.25
445.94	56521.89
446.15	55618.74
446.35	56528.03
446.56	57121.94
446.76	55872.68
446.97	56063.14
447.18	55235.77
447.38	54953.15
447.59	55887.02
447.79	55731.37
448.00	55137.46
448.21	54922.43
448.41	54060.23
448.62	54680.77
448.82	54734.01
449.03	53638.35
449.24	53306.58
449.44	53085.40
449.65	53290.19
449.85	54043.85
450.06	53376.21
450.27	52253.92
450.47	52696.28
450.68	52178.15
450.88	52137.19
451.09	52018.41
451.29	51201.27
451.50	51172.60
451.71	51021.05
451.91	51617.00
452.12	50990.33
452.32	51223.79
452.53	50695.42
452.73	50521.34
452.94	50054.40
453.15	50033.92
453.35	49546.51
453.56	49218.83
453.76	48995.60
453.97	48579.87
454.17	49216.78
454.38	48962.84
454.59	48774.42
454.79	47895.85
455.00	48370.97
455.20	47697.19
455.41	47486.25
455.61	47283.50
455.82	47504.68
456.02	47398.19
456.23	46896.44
456.44	46460.22
456.64	46290.24
456.85	46232.89
457.05	46132.54
457.26	46538.04
457.46	46511.42
457.67	45557.06
457.87	45423.95
458.08	45663.56
458.28	44789.08
458.49	44756.31
458.69	44563.80
458.90	44367.20
459.11	44070.24
459.31	44432.73
459.52	43982.18
459.72	43347.31
459.93	44418.39
460.13	44000.61
460.34	44039.52
460.54	43429.23
460.75	42421.62
460.95	43447.66
461.16	42812.79
461.36	42509.69
461.57	42734.96
461.77	42794.36
461.98	42145.15
462.18	42069.37
462.39	42337.66
462.59	42024.32
462.80	41745.80
463.00	42280.31
463.21	41825.67
463.41	41459.08
463.62	41305.48
463.82	41424.26
464.03	41745.80
464.23	41282.95
464.44	40912.27
464.64	41219.47
464.85	40398.23
465.05	41289.10
465.26	41172.36
465.46	40041.88
465.67	40574.36
465.87	40177.05
466.08	39558.56
466.28	40826.26
466.49	40490.39
466.69	39804.32
466.90	39613.86
467.10	39945.63
467.31	38968.75
467.51	39916.96
467.72	39353.77
467.92	39730.59
468.13	39706.02
468.33	39163.31
468.54	39138.73
468.74	39091.63
468.95	38841.78
469.15	39175.59
469.35	39378.34
469.56	38434.23
469.76	38612.40
469.97	38811.06
470.17	39415.21
470.38	38802.86
470.58	39204.27
470.79	38804.91
470.99	38987.18
471.20	39177.64
471.40	38856.11
471.61	38747.57
471.81	38421.94
472.01	38903.21
472.22	38458.81
472.42	38639.03
472.63	38956.46
472.83	38782.38
473.04	38299.06
473.24	38516.15
473.45	38739.38
473.65	38626.74
473.85	38399.41
474.06	38002.11
474.26	38731.18
474.47	38733.23
474.67	38041.02
474.88	38438.33
475.08	38862.26
475.28	38944.17
475.49	38643.12
475.69	38137.27
475.90	38188.47
476.10	38643.12
476.31	39065.00
476.51	38755.76
476.71	38413.75
476.92	38237.62
477.12	38639.03
477.33	38630.83
477.53	38440.37
477.73	38327.74
477.94	38012.35
478.14	38536.63
478.35	38149.56
478.55	38378.93
478.76	37756.35
478.96	37817.79
479.16	38034.88
479.37	38368.69
479.57	37842.37
479.78	38006.20
479.98	37973.44
480.18	38010.30
480.39	37920.19
480.59	38086.07
480.80	37791.17
481.00	37930.43
481.20	37600.71
481.41	37928.38
481.61	38325.69
481.81	37647.81
482.02	37522.88
482.22	37641.67
482.43	37719.49
482.63	37326.28
482.83	37017.04
483.04	37785.02
483.24	37320.13
483.45	37217.74
483.65	37195.21
483.85	37207.50
484.06	37502.40
484.26	36951.50
484.46	37500.36
484.67	36750.80
484.87	36568.53
485.07	36814.29
485.28	37017.04
485.48	36652.50
485.69	36812.24
485.89	36251.09
486.09	36353.49
486.30	36574.67
486.50	36451.80
486.70	36402.64
486.91	36111.83
487.11	36009.43
487.31	36160.98
487.52	36312.53
487.72	36603.35
487.92	35472.87
488.13	35972.57
488.33	35991.00
488.54	35485.15
488.74	35608.03
488.94	35753.44
489.15	35241.45
489.35	35943.90
489.55	35349.99
489.76	35042.79
489.96	35818.97
490.16	34964.97
490.37	34735.60
490.57	34758.13
490.77	35118.57
490.98	34840.04
491.18	35202.53
491.38	35323.36
491.59	34829.80
491.79	34647.54
491.99	34481.65
492.19	34326.00
492.40	34510.32
492.60	34432.50
492.80	34045.43
493.01	34127.35
493.21	34375.16
493.41	33709.57
493.62	34223.61
493.82	33928.70
494.02	34008.57
494.23	33746.43
494.43	34043.38
494.63	33555.97
494.84	34110.97
495.04	33308.16
495.24	33166.85
495.44	33760.76
495.65	33228.29
495.85	33209.86
496.05	33408.51
496.26	33629.69
496.46	33299.97
496.66	32917.00
496.86	33029.64
497.07	33506.82
497.27	32695.82
497.47	32767.50
497.68	32417.30
497.88	33019.40
498.08	32413.20
498.28	32636.43
498.49	32726.54
498.69	32089.62
498.89	32204.31
499.10	32595.47
499.30	32054.81
499.50	32132.63
499.70	32106.01
499.91	32314.90
500.11	32159.25
500.31	31802.91
500.51	32298.52
500.72	31737.37
500.92	31790.62
501.12	31671.84
501.33	31622.69
501.53	31567.39
501.73	31561.25
501.93	31464.99
502.14	31634.97
502.34	31327.78
502.54	31485.47
502.74	30967.34
502.95	31122.98
503.15	30574.13
503.35	30805.55
503.55	31047.21
503.76	31071.78
503.96	30684.72
504.16	30823.98
504.36	30664.24
504.57	30453.30
504.77	30357.04
504.97	30801.45
505.17	30502.45
505.37	29953.59
505.58	29994.55
505.78	30197.30
505.98	30180.92
506.18	30363.18
506.39	29843.00
506.59	30150.20
506.79	29853.24
506.99	29718.07
507.20	29582.91
507.40	29697.59
507.60	29681.21
507.80	29298.24
508.00	29613.63
508.21	29404.74
508.41	29392.45
508.61	29107.78
508.81	29146.69
509.01	28761.67
509.22	29140.55
509.42	28890.70
509.62	28923.46
509.82	28814.92
510.02	29445.69
510.23	28819.02
510.43	28776.01
510.63	29021.77
510.83	28704.33
511.03	28749.39
511.24	28376.66
511.44	28935.75
511.64	28683.85
511.84	28227.15
512.04	28423.76
512.25	28137.04
512.45	28274.26
512.65	28397.13
512.85	27784.79
513.05	27772.50
513.26	27895.38
513.46	27993.68
513.66	27457.12
513.86	27864.66
514.06	27813.46
514.26	27823.70
514.47	27027.04
514.67	27307.62
514.87	27237.98
515.07	27219.55
515.27	26832.49
515.47	27280.99
515.68	26850.92
515.88	26977.89
516.08	26764.90
516.28	26832.49
516.48	26568.30
516.68	26207.86
516.89	26281.58
517.09	26179.18
517.29	26510.96
517.49	25992.82
517.69	26476.14
517.89	26230.38
518.09	25640.57
518.30	25384.57
518.50	25745.02
518.70	25554.55
518.90	25382.52
519.10	26211.95
519.30	25112.19
519.50	25302.65
519.71	25165.44
519.91	25144.96
520.11	24882.82
520.31	24764.04
520.51	25343.61
520.71	24520.33
520.91	24708.74
521.12	24655.50
521.32	24491.66
521.52	24022.67
521.72	23989.91
521.92	23901.84
522.12	23953.04
522.32	24018.58
522.52	23629.46
522.73	23907.99
522.93	23342.75
523.13	23434.91
523.33	22941.35
523.53	23168.67
523.73	23064.22
523.93	22970.02
524.13	22937.25
524.33	24577.67
524.54	22718.12
524.74	22482.60
524.94	22367.91
525.14	22681.25
525.34	22683.30
525.54	22023.86
525.74	21800.63
525.94	21780.15
526.14	21644.98
526.34	21458.62
526.55	21075.65
526.75	21673.65
526.95	21024.45
527.15	20995.78
527.35	21204.67
527.55	20717.25
527.75	20872.90
527.95	20463.30
528.15	20506.31
528.35	20485.83
528.55	20066.00
528.75	20002.51
528.96	19930.83
529.16	19605.20
529.36	19912.40
529.56	19590.87
529.76	19257.05
529.96	19365.59
530.16	19556.05
530.36	19334.87
530.56	19095.26
530.76	18980.57
530.96	18343.66
531.16	18982.62
531.36	18491.11
531.56	19027.68
531.76	18403.05
531.96	18073.32
532.17	18357.99
532.37	17897.20
532.57	17854.19
532.77	17889.01
532.97	17759.98
533.17	17772.27
533.37	17465.08
533.57	17393.40
533.77	17372.92
533.97	17100.54
534.17	17073.92
534.37	17041.15
534.57	16748.29
534.77	16838.40
534.97	16359.17
535.17	16557.83
535.37	16330.50
535.57	16350.98
535.77	16523.01
535.97	16176.91
536.17	16023.31
536.37	15957.77
536.57	16109.32
536.77	15763.22
536.97	15269.66
537.17	15707.92
537.37	15066.91
537.57	15081.24
537.77	15220.50
537.97	15081.24
538.18	14917.40
538.38	14855.97
538.58	15425.30
538.78	14694.18
538.98	14909.21
539.18	14491.43
539.38	14391.08
539.58	14227.24
539.78	14886.68
539.98	14157.61
540.18	14006.06
540.38	14110.50
540.58	14384.93
540.78	13651.76
540.98	13739.82
541.18	13662.00
541.38	13520.69
541.58	13754.16
541.77	13496.11
541.97	13825.84
542.17	13526.83
542.37	13127.48
542.57	12926.78
542.77	13147.96
542.97	13420.34
543.17	12885.82
543.37	12951.35
543.57	12586.82
543.77	13152.06
543.97	12621.63
544.17	12545.86
544.37	12425.03
544.57	12668.73
544.77	12414.79
544.97	12326.72
545.17	12240.71
545.37	12203.85
545.57	12007.24
545.77	12246.85
545.97	12050.25
546.17	12205.89
546.37	11824.97
546.57	11398.99
546.77	11849.55
546.97	11640.65
547.17	10954.58
547.37	11448.15
547.57	11130.71
547.76	11663.18
547.96	11056.98
548.16	11011.93
548.36	11177.81
548.56	10942.30
548.76	10696.54
548.96	10733.40
549.16	10823.51
549.36	10766.17
549.56	10510.18
549.76	11038.55
549.96	10663.77
550.16	10420.06
550.36	10518.37
550.56	10372.96
550.75	10260.32
550.95	10233.70
551.15	10162.02
551.35	9852.78
551.55	10033.00
551.75	10170.21
551.95	9793.39
552.15	9647.98
552.35	9856.87
552.55	9889.64
552.75	9697.13
552.95	9224.05
553.14	9574.25
553.34	9908.07
553.54	9332.59
553.74	9377.65
553.94	9234.29
554.14	9117.56
554.34	9346.93
554.54	9027.45
554.74	9279.35
554.94	9248.63
555.13	9025.40
555.33	8329.09
555.53	8841.08
555.73	8847.22
555.93	8683.39
556.13	8916.86
556.33	9203.57
556.53	8982.39
556.73	8327.04
556.92	8603.52
557.12	8626.04
557.32	8331.14
557.52	7942.02
557.72	8300.42
557.92	8527.74
558.12	8324.99
558.32	8339.33
558.51	8374.14
558.71	8230.79
558.91	8320.90
559.11	7985.03
559.31	7989.13
559.51	7999.37
559.71	7903.11
559.91	7706.51
560.10	7593.87
560.30	8224.64
560.50	7823.24
560.70	7444.37
560.90	7540.62
561.10	7561.10
561.29	7769.99
561.49	7049.11
561.69	7368.59
561.89	7446.41
562.09	7382.93
562.29	7606.16
562.49	6973.33
562.68	7214.99
562.88	7473.04
563.08	7176.08
563.28	6836.12
563.48	7032.72
563.68	7301.01
563.87	6975.38
564.07	6512.54
564.27	6881.18
564.47	7038.87
564.67	6485.92
564.87	6471.58
565.06	6717.34
565.26	6836.12
565.46	6612.89
565.66	6389.66
565.86	6852.50
566.05	6371.23
566.25	6256.54
566.45	6270.88
566.65	6678.43
566.85	6293.41
567.05	5812.14
567.24	6154.15
567.44	6166.43
567.64	6399.90
567.84	5830.57
568.04	5957.54
568.23	6193.06
568.43	6438.81
568.63	5480.36
568.83	5920.68
569.03	5889.96
569.22	6141.86
569.42	6021.03
569.62	5703.59
569.82	6027.17
570.02	5787.56
570.21	5762.98
570.41	5740.46
570.61	5648.30
570.81	5840.81
571.00	5578.67
571.20	5246.90
571.40	5898.15
571.60	5830.57
571.80	5310.38
571.99	5095.35
572.19	5494.70
572.39	5607.34
572.59	5169.07
572.78	5150.64
572.98	5414.83
573.18	5367.73
573.38	5195.70
573.57	5337.01
573.77	5218.22
573.97	5337.01
574.17	5054.39
574.36	5142.45
574.56	5144.50
574.76	5115.83
574.96	4851.64
575.15	5203.89
575.35	5099.44
575.55	5113.78
575.75	4960.18
575.94	4954.04
576.14	5087.15
576.34	5072.82
576.54	4739.00
576.73	4677.56
576.93	4671.42
577.13	4730.81
577.33	4958.13
577.52	4626.36
577.72	4556.73
577.92	4657.08
578.12	4487.10
578.31	5001.14
578.51	5263.28
578.71	4890.55
578.90	4282.30
579.10	4755.38
579.30	4698.04
579.50	4399.04
579.69	4235.20
579.89	4374.46
580.09	4507.58
580.29	4536.25
580.48	4356.03
580.68	4210.62
580.88	4562.87
581.07	4267.97
581.27	4274.11
581.47	4413.37
581.66	4274.11
581.86	4833.21
582.06	4171.71
582.26	4136.90
582.45	4118.47
582.65	4456.38
582.85	4204.48
583.04	4014.02
583.24	4362.17
583.44	4077.51
583.63	4091.84
583.83	3938.24
584.03	4204.48
584.22	4380.61
584.42	3946.44
584.62	3876.80
584.82	4114.37
585.01	4140.99
585.21	3952.58
585.41	3964.87
585.60	4028.35
585.80	3964.87
586.00	3880.90
586.19	3680.20
586.39	3860.42
586.59	3975.11
586.78	3766.21
586.98	3776.45
587.18	3903.43
587.37	4155.33
587.57	3639.24
587.77	3839.94
587.96	3745.73
588.16	3901.38
588.36	3534.79
588.55	3663.82
588.75	4175.81
588.94	3727.30
589.14	3581.90
589.34	3776.45
589.53	3913.67
589.73	3839.94
589.93	3489.74
590.12	3368.91
590.32	3702.73
590.52	3864.52
590.71	3561.42
590.91	3278.80
591.11	3547.08
591.30	3768.26
591.50	3348.43
591.69	3209.17
591.89	3827.65
592.09	3665.86
592.28	3430.35
592.48	3403.72
592.68	3692.49
592.87	3549.13
593.07	3289.04
593.26	3313.61
593.46	3346.38
593.66	3741.64
593.85	3270.61
594.05	3336.14
594.24	3370.96
594.44	3266.51
594.64	3530.70
594.83	2895.83
595.03	3880.90
595.23	3411.92
595.42	3239.89
595.62	3282.89
595.81	3504.07
596.01	3078.10
596.20	3182.54
596.40	3098.58
596.60	3278.80
596.79	3706.82
596.99	3147.73
597.18	2893.78
597.38	3317.71
597.58	3270.61
597.77	2924.50
597.97	2840.53
598.16	3305.42
598.36	3547.08
598.56	2838.48
598.75	3370.96
598.95	3551.18
599.14	3416.01
599.34	3227.60
599.53	3051.47
599.73	3284.94
599.93	3506.12
600.12	3166.16
600.32	3141.58
600.51	3252.17
600.71	3100.62
600.90	3082.19
601.10	3121.10
601.29	3452.88
601.49	3256.27
601.69	2899.92
601.88	3241.93
602.08	3301.33
602.27	3170.26
602.47	2723.80
602.66	2922.45
602.86	3362.76
603.05	3426.25
603.25	2891.73
603.45	3024.85
603.64	3268.56
603.84	2985.94
604.03	2648.02
604.23	2977.75
604.42	3176.40
604.62	3172.30
604.81	2815.96
605.01	3137.49
605.20	3213.26
605.40	3065.81
605.59	2609.11
605.79	2807.77
605.98	2953.17
606.18	3059.67
606.37	3203.02
606.57	2822.10
606.77	3008.47
606.96	2832.34
607.16	2668.50
607.35	2650.07
607.55	3153.87
607.74	3047.38
607.94	2795.48
608.13	2764.76
608.33	2969.55
608.52	2901.97
608.72	2750.42
608.91	2840.53
609.11	2785.24
609.30	3086.29
609.50	2848.72
609.69	2578.39
609.89	3069.91
610.08	3088.34
610.28	2607.06
610.47	2666.46
610.67	2912.21
610.86	3059.67
611.06	2916.31
611.25	2777.05
611.44	2914.26
611.64	2967.51
611.83	2992.08
612.03	2770.90
612.22	2783.19
612.42	2891.73
612.61	2631.64
612.81	2660.31
613.00	2807.77
613.20	2822.10
613.39	2664.41
613.59	2707.41
613.78	2738.13
613.98	3133.39
614.17	2721.75
614.37	2854.87
614.56	2709.46
614.75	2877.40
614.95	2637.78
615.14	2768.85
615.34	2621.40
615.53	3114.96
615.73	2965.46
615.92	2641.88
616.12	2676.70
616.31	2711.51
616.50	2818.00
616.70	2645.98
616.89	2793.43
617.09	3076.05
617.28	2654.17
617.48	2775.00
617.67	2830.29
617.87	2983.89
618.06	2693.08
618.25	2287.58
618.45	2715.61
618.64	3057.62
618.84	2852.82
619.03	2688.98
619.23	2701.27
619.42	2490.33
619.61	2680.79
619.81	2781.14
620.00	2621.40
620.20	2887.64
620.39	2822.10
620.58	2533.34
620.78	2549.72
620.97	2832.34
621.17	2467.80
621.36	2381.79
621.55	2805.72
621.75	2703.32
621.94	2682.84
622.14	2373.60
622.33	2443.23
622.52	2789.33
622.72	2295.77
622.91	2637.78
623.11	2664.41
623.30	2586.58
623.49	2602.97
623.69	2457.56
623.88	2621.40
624.08	2832.34
624.27	2547.67
624.46	2467.80
624.66	2627.54
624.85	2836.44
625.05	2543.58
625.24	2592.73
625.43	2598.87
625.63	2605.02
625.82	2498.52
626.01	2349.02
626.21	2672.60
626.40	2764.76
626.59	2496.47
626.79	2619.35
626.98	2658.26
627.18	2500.57
627.37	2568.15
627.56	2342.88
627.76	2598.87
627.95	2719.70
628.14	2185.18
628.34	2502.62
628.53	2701.27
628.72	2631.64
628.92	2346.97
629.11	2697.17
629.30	2549.72
629.50	2412.51
629.69	2443.23
629.88	2578.39
630.08	2619.35
630.27	2453.47
630.46	2338.78
630.66	2453.47
630.85	2521.05
631.04	2629.59
631.24	2680.79
631.43	2400.22
631.62	2441.18
631.82	2715.61
632.01	2394.08
632.20	2322.40
632.40	3241.93
632.59	2662.36
632.78	2322.40
632.98	2312.16
633.17	2609.11
633.36	2793.43
633.56	2334.68
633.75	2279.39
633.94	2441.18
634.14	2871.25
634.33	2338.78
634.52	2516.95
634.71	2506.71
634.91	2729.94
635.10	2455.51
635.29	2308.06
635.49	2582.49
635.68	2541.53
635.87	2306.01
636.07	2258.91
636.26	2512.86
636.45	2789.33
636.64	2535.39
636.84	2418.65
637.03	2682.84
637.22	2693.08
637.42	2467.80
637.61	2383.84
637.80	2719.70
637.99	2566.10
638.19	2336.73
638.38	2502.62
638.57	2508.76
638.76	2467.80
638.96	2289.63
639.15	2623.45
639.34	2510.81
639.54	2379.74
639.73	2349.02
639.92	2232.29
640.11	2236.38
640.31	2592.73
640.50	2435.03
640.69	2453.47
640.88	2568.15
641.08	2523.10
641.27	2256.86
641.46	2295.77
641.65	2226.14
641.85	2443.23
642.04	2588.63
642.23	2293.72
642.42	2400.22
642.62	2527.19
642.81	2256.86
643.00	2527.19
643.19	2533.34
643.38	2441.18
643.58	2176.99
643.77	2222.05
643.96	2504.67
644.15	2572.25
644.35	2336.73
644.54	2066.40
644.73	2545.63
644.92	2514.91
645.12	2541.53
645.31	2025.44
645.50	2432.99
645.69	2428.89
645.88	2265.05
646.08	2328.54
646.27	2242.53
646.46	2312.16
646.65	2408.41
646.84	2181.09
647.04	2562.01
647.23	2480.09
647.42	2365.40
647.61	2519.00
647.80	2420.70
648.00	2559.96
648.19	2211.81
648.38	2260.96
648.57	2490.33
648.76	2418.65
648.96	2400.22
649.15	2457.56
649.34	2308.06
649.53	2523.10
649.72	2109.41
649.92	2467.80
650.11	2230.24
650.30	2420.70
650.49	2103.26
650.68	2232.29
650.87	2351.07
651.07	2176.99
651.26	2318.30
651.45	2260.96
651.64	2287.58
651.83	2465.75
652.02	2193.37
652.22	2090.98
652.41	2283.49
652.60	2441.18
652.79	2004.96
652.98	2279.39
653.17	2398.17
653.37	2457.56
653.56	2361.31
653.75	2308.06
653.94	2422.75
654.13	2611.16
654.32	2297.82
654.51	2281.44
654.71	2377.69
654.90	2453.47
655.09	2148.32
655.28	2301.92
655.47	2535.39
655.66	2461.66
655.85	2250.72
656.05	2314.20
656.24	2502.62
656.43	2396.12
656.62	2306.01
656.81	2363.36
657.00	2408.41
657.19	2215.90
657.38	2029.54
657.58	2449.37
657.77	2263.01
657.96	2287.58
658.15	2281.44
658.34	2330.59
658.53	2293.72
658.72	2322.40
658.91	2232.29
659.10	2437.08
659.30	2441.18
659.49	2510.81
659.68	2338.78
659.87	2297.82
660.06	2537.43
660.25	2334.68
660.44	2473.95
660.63	2060.26
660.82	2488.28
661.01	2445.27
661.21	2179.04
661.40	2195.42
661.59	2293.72
661.78	2199.52
661.97	2213.85
662.16	2256.86
662.35	2330.59
662.54	2424.80
662.73	2359.26
662.92	2299.87
663.11	2547.67
663.30	2383.84
663.50	2174.94
663.69	2127.84
663.88	2445.27
664.07	2404.32
664.26	2238.43
664.45	2353.12
664.64	2267.10
664.83	2136.03
665.02	2140.13
665.21	2336.73
665.40	2193.37
665.59	2406.36
665.78	2355.16
665.97	2336.73
666.16	2349.02
666.35	2267.10
666.54	2179.04
666.73	2506.71
666.93	2160.61
667.12	2385.88
667.31	2404.32
667.50	2320.35
667.69	2228.19
667.88	2320.35
668.07	2324.44
668.26	2109.41
668.45	2592.73
668.64	2478.04
668.83	2156.51
669.02	2189.28
669.21	2097.12
669.40	2426.84
669.59	2301.92
669.78	2295.77
669.97	2277.34
670.16	2318.30
670.35	2146.27
670.54	2160.61
670.73	2316.25
670.92	2109.41
671.11	2250.72
671.30	2363.36
671.49	2625.50
671.68	2418.65
671.87	2203.61
672.06	2263.01
672.25	2402.27
672.44	2545.63
672.63	2133.98
672.82	2203.61
673.01	2295.77
673.20	2385.88
673.39	2291.68
673.58	2105.31
673.77	2164.70
673.96	2232.29
674.15	2199.52
674.34	2250.72
674.53	2488.28
674.72	2287.58
674.91	2349.02
675.10	2279.39
675.29	2306.01
675.48	2093.02
675.67	2142.18
675.86	2293.72
676.05	2334.68
676.24	2207.71
676.43	2303.96
676.62	2428.89
676.81	2451.42
677.00	2537.43
677.19	1986.53
677.38	2031.58
677.57	2389.98
677.75	2441.18
677.94	2146.27
678.13	2060.26
678.32	2359.26
678.51	2641.88
678.70	2043.87
678.89	2351.07
679.08	2084.83
679.27	2367.45
679.46	2076.64
679.65	2353.12
679.84	2136.03
680.03	2246.62
680.22	2322.40
680.41	2308.06
680.60	2537.43
680.79	2545.63
680.97	2025.44
681.16	2170.85
681.35	2404.32
681.54	2297.82
681.73	2093.02
681.92	2199.52
682.11	2287.58
682.30	2467.80
682.49	2189.28
682.68	2138.08
682.87	2336.73
683.06	2375.64
683.25	2310.11
683.43	2148.32
683.62	2414.56
683.81	2375.64
684.00	2240.48
684.19	2211.81
684.38	2308.06
684.57	2598.87
684.76	2236.38
684.95	2160.61
685.14	2494.43
685.32	2338.78
685.51	1957.86
685.70	2420.70
685.89	2287.58
686.08	2330.59
686.27	1998.82
686.46	2154.46
686.65	2228.19
686.83	2193.37
687.02	2256.86
687.21	2127.84
687.40	2375.64
687.59	2254.81
687.78	2320.35
687.97	1947.62
688.16	2482.14
688.34	2527.19
688.53	2199.52
688.72	2244.57
688.91	2471.90
689.10	2453.47
689.29	2166.75
689.48	2150.37
689.66	2375.64
689.85	2490.33
690.04	2207.71
690.23	2375.64
690.42	2365.40
690.61	2238.43
690.80	2166.75
690.98	2211.81
691.17	2471.90
691.36	2756.57
691.55	2222.05
691.74	2111.46
691.93	2125.79
692.11	2273.25
692.30	2090.98
692.49	2478.04
692.68	2506.71
692.87	2316.25
693.06	2021.35
693.24	2254.81
693.43	2248.67
693.62	2232.29
693.81	2039.78
694.00	2144.22
694.19	2394.08
694.37	2318.30
694.56	1964.00
694.75	2310.11
694.94	2138.08
695.13	2158.56
695.31	1982.43
695.50	2052.06
695.69	2572.25
695.88	2504.67
696.07	2428.89
696.25	2271.20
696.44	2342.88
696.63	2660.31
696.82	2133.98
697.01	2033.63
697.19	2185.18
697.38	2435.03
697.57	2162.66
697.76	2199.52
697.95	2424.80
698.13	2281.44
698.32	2017.25
698.51	2205.66
698.70	2443.23
698.88	2193.37
699.07	2080.74
699.26	2101.22
699.45	2289.63
699.64	2312.16
699.82	2117.60
700.01	2324.44
700.20	2095.07
700.39	2562.01
700.57	2166.75
700.76	2375.64
700.95	2121.70
701.14	2584.54
701.32	2058.21
701.51	2195.42
701.70	2295.77
701.89	2099.17
702.07	2252.77
702.26	2283.49
702.45	2338.78
702.64	2414.56
702.82	2179.04
703.01	2174.94
703.20	2230.24
703.39	2258.91
703.57	2363.36
703.76	2570.20
703.95	2269.15
704.14	2209.76
704.32	2080.74
704.51	2142.18
704.70	2191.33
704.89	2170.85
705.07	2228.19
705.26	2273.25
705.45	2127.84
705.63	2240.48
705.82	2097.12
706.01	2197.47
706.20	2195.42
706.38	2254.81
706.57	1998.82
706.76	1972.19
706.94	2156.51
707.13	2277.34
707.32	2383.84
707.51	1998.82
707.69	2299.87
707.88	2586.58
708.07	2099.17
708.25	2002.91
708.44	2172.89
708.63	2125.79
708.81	2064.35
709.00	2299.87
709.19	2308.06
709.37	2144.22
709.56	2133.98
709.75	2289.63
709.94	2258.91
710.12	2295.77
710.31	2211.81
710.50	2291.68
710.68	2240.48
710.87	2502.62
711.06	2142.18
711.24	2367.45
711.43	2213.85
711.62	2602.97
711.80	2062.30
711.99	2361.31
712.18	2230.24
712.36	2346.97
712.55	2185.18
712.74	2179.04
712.92	2250.72
713.11	2414.56
713.30	2088.93
713.48	2183.13
713.67	2209.76
713.85	2387.93
714.04	2129.89
714.23	2637.78
714.41	2164.70
714.60	2379.74
714.79	2136.03
714.97	2475.99
715.16	2195.42
715.35	2367.45
715.53	2084.83
715.72	2269.15
715.91	2136.03
716.09	2385.88
716.28	2215.90
716.46	2279.39
716.65	2541.53
716.84	2523.10
717.02	2093.02
717.21	2199.52
717.40	2140.13
717.58	2252.77
717.77	2244.57
717.95	2238.43
718.14	2422.75
718.33	2449.37
718.51	2154.46
718.70	2097.12
718.88	2363.36
719.07	2199.52
719.26	2127.84
719.44	2258.91
719.63	2064.35
719.81	2187.23
720.00	2144.22
720.19	2129.89
720.37	2183.13
720.56	2338.78
720.74	2191.33
720.93	2303.96
721.12	2179.04
721.30	2369.50
721.49	2183.13
721.67	2164.70
721.86	2183.13
722.04	2443.23
722.23	2193.37
722.42	2258.91
722.60	2252.77
722.79	2293.72
722.97	2203.61
723.16	2109.41
723.34	2312.16
723.53	2324.44
723.72	2432.99
723.90	2322.40
724.09	2183.13
724.27	2475.99
724.46	2258.91
724.64	2140.13
724.83	2277.34
725.01	2330.59
725.20	2166.75
725.39	2189.28
725.57	2502.62
725.76	2441.18
725.94	2129.89
726.13	2050.02
726.31	2156.51
726.50	2297.82
726.68	2226.14
726.87	2320.35
727.05	2320.35
727.24	2406.36
727.42	2269.15
727.61	2213.85
727.80	2017.25
727.98	2420.70
728.17	2037.73
728.35	2187.23
728.54	2310.11
728.72	2314.20
728.91	2207.71
729.09	1986.53
729.28	2455.51
729.46	2412.51
729.65	2252.77
729.83	2107.36
730.02	2457.56
730.20	2392.03
730.39	2586.58
730.57	2179.04
730.76	2189.28
730.94	2471.90
731.13	2236.38
731.31	2056.16
731.50	2107.36
731.68	2293.72
731.87	2088.93
732.05	2332.64
732.24	2359.26
732.42	2283.49
732.61	2029.54
732.79	2234.33
732.98	2437.08
733.16	2392.03
733.35	2142.18
733.53	2213.85
733.71	2228.19
733.90	2215.90
734.08	2203.61
734.27	2168.80
734.45	2230.24
734.64	2265.05
734.82	2187.23
735.01	2172.89
735.19	2199.52
735.38	2334.68
735.56	2379.74
735.75	2492.38
735.93	2144.22
736.11	2312.16
736.30	2256.86
736.48	2127.84
736.67	2383.84
736.85	2355.16
737.04	2019.30
737.22	2406.36
737.41	2371.55
737.59	2021.35
737.77	2273.25
737.96	2033.63
738.14	2447.32
738.33	2418.65
738.51	2185.18
738.70	2301.92
738.88	2035.68
739.06	2490.33
739.25	2256.86
739.43	2185.18
739.62	2371.55
739.80	2340.83
739.99	2263.01
740.17	2084.83
740.35	2478.04
740.54	2246.62
740.72	2131.94
740.91	2310.11
741.09	2185.18
741.27	2408.41
741.46	2312.16
741.64	2103.26
741.83	2408.41
742.01	2473.95
742.19	2129.89
742.38	2252.77
742.56	2355.16
742.75	2492.38
742.93	2324.44
743.11	2463.71
743.30	2256.86
743.48	2203.61
743.67	2217.95
743.85	2236.38
744.03	2123.74
744.22	2459.61
744.40	2197.47
744.58	2181.09
744.77	2371.55
744.95	2346.97
745.14	2041.82
745.32	2125.79
745.50	2117.60
745.69	2240.48
745.87	1986.53
746.05	2408.41
746.24	2269.15
746.42	2076.64
746.61	2265.05
746.79	2394.08
746.97	2455.51
747.16	2428.89
747.34	2371.55
747.52	2361.31
747.71	2430.94
747.89	2205.66
748.07	2115.55
748.26	2045.92
748.44	2455.51
748.62	2265.05
748.81	2316.25
748.99	2256.86
749.17	2246.62
749.36	2344.92
749.54	2095.07
749.72	2101.22
749.91	2052.06
750.09	2404.32
750.27	2158.56
750.46	2142.18
750.64	2385.88
750.82	2256.86
751.01	2125.79
751.19	2258.91
751.37	2369.50
751.56	2459.61
751.74	2068.45
751.92	2234.33
752.10	2340.83
752.29	2052.06
752.47	2275.29
752.65	2191.33
752.84	2205.66
753.02	2191.33
753.20	2265.05
753.39	2263.01
753.57	2357.21
753.75	2473.95
753.93	2316.25
754.12	2050.02
754.30	2150.37
754.48	2430.94
754.67	2047.97
754.85	2187.23
755.03	2332.64
755.21	2680.79
755.40	2349.02
755.58	2150.37
755.76	2437.08
755.95	2353.12
756.13	2017.25
756.31	2154.46
756.49	2353.12
756.68	2193.37
756.86	2088.93
757.04	2392.03
757.22	2521.05
757.41	2449.37
757.59	2484.19
757.77	2387.93
757.95	2744.28
758.14	2340.83
758.32	2275.29
758.50	2312.16
758.68	2467.80
758.87	2715.61
759.05	2263.01
759.23	2486.23
759.41	2334.68
759.60	2385.88
759.78	2441.18
759.96	2099.17
760.14	2355.16
760.33	2232.29
760.51	2203.61
760.69	2254.81
760.87	2359.26
761.05	2312.16
761.24	2115.55
761.42	2375.64
761.60	2383.84
761.78	2447.32
761.97	2207.71
762.15	2418.65
762.33	2639.83
762.51	2408.41
762.69	2295.77
762.88	2430.94
763.06	2629.59
763.24	2224.09
763.42	2576.34
763.60	2346.97
763.79	2129.89
763.97	2412.51
764.15	2115.55
764.33	2455.51
764.51	2314.20
764.70	2551.77
764.88	2398.17
765.06	2183.13
765.24	2260.96
765.42	2592.73
765.61	2156.51
765.79	2406.36
765.97	2308.06
766.15	2484.19
766.33	2191.33
766.51	2246.62
766.70	2385.88
766.88	2576.34
767.06	2197.47
767.24	2209.76
767.42	2199.52
767.60	2250.72
767.79	2197.47
767.97	2297.82
768.15	2322.40
768.33	2498.52
768.51	2344.92
768.69	2478.04
768.88	2400.22
769.06	2402.27
769.24	2226.14
769.42	2592.73
769.60	2265.05
769.78	2246.62
769.96	2070.50
770.15	2627.54
770.33	2435.03
770.51	2465.75
770.69	2346.97
770.87	2203.61
771.05	2408.41
771.23	2443.23
771.41	2275.29
771.60	2113.50
771.78	2383.84
771.96	2363.36
772.14	2172.89
772.32	2414.56
772.50	2279.39
772.68	2322.40
772.86	2326.49
773.05	2275.29
773.23	2547.67
773.41	2353.12
773.59	2377.69
773.77	2228.19
773.95	2430.94
774.13	2537.43
774.31	2211.81
774.49	2371.55
774.68	2142.18
774.86	2658.26
775.04	2392.03
775.22	2281.44
775.40	2226.14
775.58	2258.91
775.76	2310.11
775.94	2183.13
776.12	2367.45
776.30	2492.38
776.48	2326.49
776.66	2322.40
776.85	2330.59
777.03	2664.41
777.21	2236.38
777.39	2553.82
777.57	2711.51
777.75	2312.16
777.93	2246.62
778.11	2504.67
778.29	2400.22
778.47	2322.40
778.65	2545.63
778.83	2656.22
779.01	2592.73
779.19	2500.57
779.37	2400.22
779.55	2557.91
779.74	2222.05
779.92	2482.14
780.10	2373.60
780.28	2457.56
780.46	2498.52
780.64	2621.40
780.82	2301.92
781.00	2527.19
781.18	2381.79
781.36	2527.19
781.54	2213.85
781.72	2512.86
781.90	2363.36
782.08	2248.67
782.26	2318.30
782.44	2363.36
782.62	2619.35
782.80	2623.45
782.98	2254.81
783.16	2338.78
783.34	2369.50
783.52	2570.20
783.70	2539.48
783.88	2099.17
784.06	2539.48
784.24	2463.71
784.42	2359.26
784.60	2207.71
784.78	2424.80
784.96	2394.08
785.14	2383.84
785.32	2312.16
785.50	2271.20
785.68	2586.58
785.86	2322.40
786.04	2148.32
786.22	2480.09
786.40	2377.69
786.58	2232.29
786.76	2168.80
786.94	2529.24
787.12	2129.89
787.30	2441.18
787.48	2197.47
787.66	2562.01
787.84	2437.08
788.02	2637.78
788.20	2197.47
788.38	2416.60
788.56	2750.42
788.74	2404.32
788.92	2179.04
789.10	2447.32
789.28	2676.70
789.46	2189.28
789.64	2672.60
789.82	2283.49
790.00	2516.95
790.17	2136.03
790.35	2418.65
790.53	2508.76
790.71	2529.24
790.89	2648.02
791.07	2293.72
791.25	2600.92
791.43	2441.18
791.61	2179.04
791.79	2279.39
791.97	2369.50
792.15	2463.71
792.33	2533.34
792.51	2265.05
792.69	2301.92
792.86	2549.72
793.04	2236.38
793.22	2336.73
793.40	2459.61
793.58	2373.60
793.76	2213.85
793.94	2727.89
794.12	2543.58
794.30	2387.93
794.48	2340.83
794.66	2492.38
794.84	2508.76
795.01	2478.04
795.19	2154.46
795.37	2502.62
795.55	2525.15
795.73	2553.82
795.91	2332.64
796.09	2222.05
796.27	2461.66
796.45	2234.33
796.62	2340.83
796.80	2424.80
796.98	2420.70
797.16	2564.06
797.34	2254.81
797.52	2387.93
797.70	2381.79
797.88	2412.51
798.06	2519.00
798.23	2957.27
798.41	2451.42
798.59	2328.54
798.77	2115.55
798.95	2387.93
799.13	2396.12
799.31	2615.26
799.48	2340.83
799.66	2295.77
799.84	2289.63
800.02	2445.27
800.20	2463.71
800.38	3065.81
800.56	2412.51
800.73	2459.61
800.91	2363.36
801.09	2777.05
801.27	2424.80
801.45	2369.50
801.63	2342.88
801.80	2639.83
801.98	2349.02
802.16	2265.05
802.34	2306.01
802.52	2445.27
802.70	2484.19
802.87	2418.65
803.05	2377.69
803.23	2426.84
803.41	2635.74
803.59	2490.33
803.77	2297.82
803.94	2428.89
804.12	2322.40
804.30	2437.08
804.48	2299.87
804.66	2064.35
804.83	2861.01
805.01	2201.57
805.19	2320.35
805.37	2140.13
805.55	2383.84
805.72	2557.91
805.90	2248.67
806.08	2285.53
806.26	2482.14
806.44	2549.72
806.61	2289.63
806.79	2215.90
806.97	2174.94
807.15	2459.61
807.32	2330.59
807.50	2516.95
807.68	2336.73
807.86	2559.96
808.04	2238.43
808.21	2496.47
808.39	2627.54
808.57	2443.23
808.75	2336.73
808.92	2228.19
809.10	2349.02
809.28	2514.91
809.46	2473.95
809.63	2392.03
809.81	2330.59
809.99	2598.87
810.17	2201.57
810.35	2322.40
810.52	2402.27
810.70	2340.83
810.88	2422.75
811.05	2506.71
811.23	2449.37
811.41	2762.71
811.59	2299.87
811.76	2195.42
811.94	2488.28
812.12	2420.70
812.30	2349.02
812.47	2369.50
812.65	2267.10
812.83	2609.11
813.01	2330.59
813.18	2353.12
813.36	2611.16
813.54	2641.88
813.71	2156.51
813.89	2269.15
814.07	2566.10
814.25	2381.79
814.42	2158.56
814.60	2201.57
814.78	2418.65
814.95	2740.18
815.13	2220.00
815.31	2375.64
815.49	2414.56
815.66	2545.63
815.84	2156.51
816.02	2176.99
816.19	2445.27
816.37	2306.01
816.55	2183.13
816.72	2486.23
816.90	2301.92
817.08	2252.77
817.25	2555.86
817.43	2140.13
817.61	2453.47
817.78	2396.12
817.96	2357.21
818.14	2220.00
818.32	2392.03
818.49	2486.23
818.67	2193.37
818.85	2545.63
819.02	2531.29
819.20	2512.86
819.38	2312.16
819.55	2387.93
819.73	2609.11
819.90	2709.46
820.08	2195.42
820.26	2389.98
820.43	2697.17
820.61	2537.43
820.79	2310.11
820.96	2076.64
821.14	2215.90
821.32	2441.18
821.49	2142.18
821.67	2146.27
821.85	2371.55
822.02	2263.01
822.20	2379.74
822.37	2201.57
822.55	2447.32
822.73	2688.98
822.90	2324.44
823.08	2226.14
823.26	2322.40
823.43	2392.03
823.61	2133.98
823.78	2338.78
823.96	2445.27
824.14	2648.02
824.31	2486.23
824.49	2265.05
824.67	2551.77
824.84	2488.28
825.02	2328.54
825.19	2121.70
825.37	2809.81
825.55	2519.00
825.72	2586.58
825.90	2625.50
826.07	2441.18
826.25	2656.22
826.43	1998.82
826.60	2404.32
826.78	2422.75
826.95	2490.33
827.13	2168.80
827.30	2523.10
827.48	2519.00
827.66	2447.32
827.83	2273.25
828.01	2289.63
828.18	2363.36
828.36	2525.15
828.53	2136.03
828.71	2140.13
828.89	2461.66
829.06	2543.58
829.24	2133.98
829.41	2185.18
829.59	2365.40
829.76	2293.72
829.94	2191.33
830.11	2240.48
830.29	2334.68
830.47	2555.86
830.64	2256.86
830.82	2506.71
830.99	2367.45
831.17	2519.00
831.34	2564.06
831.52	2322.40
831.69	2355.16
831.87	2506.71
832.04	2465.75
832.22	2179.04
832.40	2330.59
832.57	2588.63
832.75	2142.18
832.92	2133.98
833.10	2394.08
833.27	2580.44
833.45	2412.51
833.62	2220.00
833.80	2519.00
833.97	2441.18
834.15	2535.39
834.32	2258.91
834.50	2269.15
834.67	2775.00
834.85	2209.76
835.02	2447.32
835.20	2578.39
835.37	2799.57
835.55	2301.92
835.72	2498.52
835.90	2244.57
836.07	2639.83
836.25	2457.56
836.42	2373.60
836.60	2332.64
836.77	2543.58
836.95	2557.91
837.12	2459.61
837.30	2404.32
837.47	2346.97
837.65	2117.60
837.82	2250.72
838.00	2375.64
838.17	2295.77
838.34	2174.94
838.52	2328.54
838.69	2592.73
838.87	2516.95
839.04	2279.39
839.22	2142.18
839.39	2357.21
839.57	2500.57
839.74	2334.68
839.92	2107.36
840.09	2306.01
840.26	2621.40
840.44	2242.53
840.61	2410.46
840.79	2129.89
840.96	2252.77
841.14	2533.34
841.31	2179.04
841.49	2312.16
841.66	2426.84
841.83	2406.36
842.01	2455.51
842.18	2371.55
842.36	2467.80
842.53	2277.34
842.71	2392.03
842.88	2193.37
843.05	2430.94
843.23	2238.43
843.40	2250.72
843.58	2592.73
843.75	2502.62
843.92	2197.47
844.10	2197.47
844.27	2297.82
844.45	2576.34
844.62	2228.19
844.80	2355.16
844.97	2285.53
845.14	2457.56
845.32	2226.14
845.49	2140.13
845.66	2437.08
845.84	2320.35
846.01	2275.29
846.19	2279.39
846.36	2688.98
846.53	2789.33
846.71	2232.29
846.88	2267.10
847.06	2342.88
847.23	2400.22
847.40	2199.52
847.58	2371.55
847.75	2506.71
847.92	2818.00
848.10	2277.34
848.27	2375.64
848.45	2381.79
848.62	2576.34
848.79	2029.54
848.97	2324.44
849.14	2365.40
849.31	2279.39
849.49	2402.27
849.66	2103.26
849.83	2332.64
850.01	2641.88
850.18	2334.68
850.35	2369.50
850.53	2635.74
850.70	2469.85
850.87	2410.46
851.05	2355.16
851.22	2631.64
851.39	2926.55
851.57	2273.25
851.74	2088.93
851.91	2203.61
852.09	2361.31
852.26	2297.82
852.43	2060.26
852.61	2488.28
852.78	2371.55
852.95	2467.80
853.13	2093.02
853.30	2494.43
853.47	2631.64
853.65	2506.71
853.82	2254.81
853.99	2435.03
854.16	2494.43
854.34	2062.30
854.51	2047.97
854.68	2400.22
854.86	2496.47
855.03	2201.57
855.20	2138.08
855.38	2482.14
855.55	2480.09
855.72	1984.48
855.89	1988.58
856.07	2772.95
856.24	2414.56
856.41	2027.49
856.59	2306.01
856.76	2424.80
856.93	2686.94
857.10	1988.58
857.28	2115.55
857.45	2365.40
857.62	2459.61
857.79	2082.78
857.97	2052.06
858.14	2445.27
858.31	2480.09
858.48	1945.57
858.66	2133.98
858.83	2576.34
859.00	2437.08
859.17	2215.90
859.35	2140.13
859.52	2566.10
859.69	2504.67
859.86	2066.40
860.04	2054.11
860.21	2381.79
860.38	2664.41
860.55	2060.26
860.73	2185.18
860.90	2138.08
861.07	2678.74
861.24	2207.71
861.42	2152.42
861.59	2412.51
861.76	2523.10
861.93	2062.30
862.10	2072.54
862.28	2650.07
862.45	2387.93
862.62	2047.97
862.79	2205.66
862.96	2381.79
863.14	2609.11
863.31	2074.59
863.48	2371.55
863.65	2396.12
863.83	2588.63
864.00	2424.80
864.17	1957.86
864.34	2588.63
864.51	2400.22
864.68	2031.58
864.86	2387.93
865.03	2437.08
865.20	2590.68
865.37	2273.25
865.54	2197.47
865.72	2475.99
865.89	2408.41
866.06	2179.04
866.23	2445.27
866.40	2541.53
866.57	2713.56
866.75	2285.53
866.92	2080.74
867.09	2443.23
867.26	2537.43
867.43	2293.72
867.60	2004.96
867.78	2453.47
867.95	2611.16
868.12	2207.71
868.29	1972.19
868.46	2645.98
868.63	2621.40
868.81	2142.18
868.98	2107.36
869.15	2523.10
869.32	2588.63
869.49	2117.60
869.66	2228.19
869.83	2568.15
870.00	2535.39
870.18	2068.45
870.35	2121.70
870.52	2408.41
870.69	2738.13
870.86	2185.18
871.03	2093.02
871.20	2455.51
871.37	2414.56
871.55	2252.77
871.72	2052.06
871.89	2449.37
872.06	2461.66
872.23	2166.75
872.40	2009.06
872.57	2678.74
872.74	2514.91
872.91	1927.14
873.09	2160.61
873.26	2621.40
873.43	2312.16
873.60	2232.29
873.77	2199.52
873.94	2613.21
874.11	2449.37
874.28	2086.88
874.45	2103.26
874.62	2576.34
874.79	2639.83
874.97	2193.37
875.14	2191.33
875.31	2539.48
875.48	2363.36
875.65	2133.98
875.82	2402.27
875.99	2355.16
876.16	2492.38
876.33	2062.30
876.50	2533.34
876.67	2936.79
876.84	2564.06
877.01	2234.33
877.18	2551.77
877.35	2426.84
877.53	2492.38
877.70	2158.56
877.87	2148.32
878.04	2426.84
878.21	2662.36
878.38	2129.89
878.55	2176.99
878.72	2437.08
878.89	2701.27
879.06	2199.52
879.23	2226.14
879.40	2498.52
879.57	2631.64
879.74	2007.01
879.91	2377.69
880.08	2435.03
880.25	2533.34
880.42	2113.50
880.59	2115.55
880.76	2385.88
880.93	2637.78
881.10	2121.70
881.27	2234.33
881.44	2432.99
881.61	2844.63
881.78	1949.67
881.95	2330.59
882.12	2373.60
882.29	2519.00
882.46	2248.67
882.63	2234.33
882.80	2521.05
882.97	2531.29
883.14	2265.05
883.31	2123.74
883.48	2555.86
883.65	2590.68
883.82	2064.35
883.99	2273.25
884.16	3022.80
884.33	2637.78
884.50	2121.70
884.67	2121.70
884.84	2734.04
885.01	2402.27
885.18	2168.80
885.35	2058.21
885.52	2826.20
885.69	2484.19
885.86	2297.82
886.03	2117.60
886.20	2869.20
886.37	2471.90
886.54	2258.91
886.71	1920.99
886.87	2828.24
887.04	2488.28
887.21	2201.57
887.38	1982.43
887.55	2336.73
887.72	2355.16
887.89	2271.20
888.06	2004.96
888.23	2453.47
888.40	2877.40
888.57	2136.03
888.74	2195.42
888.91	2371.55
889.08	2306.01
889.25	2185.18
889.42	2109.41
889.58	2592.73
889.75	2650.07
889.92	2119.65
890.09	2314.20
890.26	3602.38
890.43	2379.74
890.60	2215.90
890.77	2072.54
890.94	2385.88
891.11	2367.45
891.28	2009.06
891.44	2133.98
891.61	2467.80
891.78	2285.53
891.95	2174.94
892.12	2306.01
892.29	2441.18
892.46	2672.60
892.63	2166.75
892.80	2007.01
892.96	2527.19
893.13	2568.15
893.30	2277.34
893.47	2242.53
893.64	2662.36
893.81	2267.10
893.98	2007.01
894.15	2158.56
894.31	2437.08
894.48	2357.21
894.65	2105.31
894.82	2559.96
894.99	2709.46
895.16	2424.80
895.33	2475.99
895.49	2162.66
895.66	2310.11
895.83	2367.45
896.00	1943.52
896.17	2093.02
896.34	2445.27
896.50	2516.95
896.67	2066.40
896.84	2138.08
897.01	2375.64
897.18	2328.54
897.35	2109.41
897.51	2054.11
897.68	2498.52
897.85	2772.95
898.02	2011.11
898.19	2041.82
898.36	2529.24
898.52	2799.57
898.69	2457.56
898.86	2328.54
899.03	2297.82
899.20	2426.84
899.36	2047.97
899.53	2095.07
899.70	2412.51
899.87	2445.27
900.04	1994.72
900.20	2441.18
900.37	2455.51
900.54	2314.20
900.71	2072.54
900.88	2453.47
901.04	2416.60
901.21	2416.60
901.38	2084.83
901.55	2088.93
901.72	2394.08
901.88	2402.27
902.05	2052.06
902.22	2125.79
902.39	2525.15
902.55	2404.32
902.72	2009.06
902.89	2023.39
903.06	2267.10
903.23	2385.88
903.39	2109.41
903.56	2103.26
903.73	2613.21
903.90	2170.85
904.06	2303.96
904.23	2121.70
904.40	2447.32
904.57	2570.20
904.73	2308.06
904.90	2220.00
905.07	2469.85
905.24	2238.43
905.40	2007.01
905.57	1998.82
905.74	2588.63
905.91	2203.61
906.07	2148.32
906.24	2228.19
906.41	2488.28
906.57	2545.63
906.74	2133.98
906.91	2172.89
907.08	2506.71
907.24	2471.90
907.41	2389.98
907.58	2050.02
907.75	2392.03
907.91	2467.80
908.08	2420.70
908.25	2328.54
908.41	2631.64
908.58	2699.22
908.75	2068.45
908.91	2179.04
909.08	2516.95
909.25	2416.60
909.42	2242.53
>>>>>End Processed Spectral Data<<<<<
