SpectraSuite Data File
++++++++++++++++++++++++++++++++++++
Date: Fri Feb 07 18:39:09 EST 2020
User: BHM
Dark Spectrum Present: No
Reference Spectrum Present: No
Number of Sampled Component Spectra: 1
Spectrometers: USB4H07074
Integration Time (usec): 1000000 (USB4H07074)
Spectra Averaged: 1 (USB4H07074)
Boxcar Smoothing: 0 (USB4H07074)
Correct for Electrical Dark: No (USB4H07074)
Strobe/Lamp Enabled: No (USB4H07074)
Correct for Detector Non-linearity: No (USB4H07074)
Correct for Stray Light: No (USB4H07074)
Number of Pixels in Processed Spectrum: 3648
>>>>>Begin Processed Spectral Data<<<<<
194.67	1099.76
194.89	1099.76
195.11	1099.76
195.33	1136.62
195.55	1165.29
195.77	2052.06
195.99	2142.18
196.21	1703.91
196.42	1828.84
196.64	2097.12
196.86	1986.53
197.08	1830.88
197.30	1910.75
197.52	1990.63
197.74	1806.31
197.96	1677.29
198.18	1746.92
198.40	1943.52
198.61	2054.11
198.83	1988.58
199.05	1863.65
199.27	1945.57
199.49	2271.20
199.71	2037.73
199.93	1906.66
200.15	2119.65
200.37	2097.12
200.58	1720.29
200.80	2000.87
201.02	2119.65
201.24	2088.93
201.46	2037.73
201.68	1970.15
201.90	1931.23
202.12	2252.77
202.34	2103.26
202.55	2197.47
202.77	2027.49
202.99	1951.71
203.21	1996.77
203.43	2058.21
203.65	2007.01
203.87	1929.19
204.09	2054.11
204.30	2213.85
204.52	2236.38
204.74	2101.22
204.96	1955.81
205.18	1933.28
205.40	2179.04
205.62	1894.37
205.84	2064.35
206.05	2011.11
206.27	2277.34
206.49	2037.73
206.71	1923.04
206.93	2054.11
207.15	2277.34
207.37	2213.85
207.58	1992.67
207.80	1761.25
208.02	2062.30
208.24	1976.29
208.46	1880.04
208.68	1841.12
208.90	2338.78
209.11	2090.98
209.33	1806.31
209.55	1925.09
209.77	1837.03
209.99	1929.19
210.21	2021.35
210.43	1802.21
210.64	2099.17
210.86	2090.98
211.08	1814.50
211.30	2035.68
211.52	2078.69
211.74	2078.69
211.95	1920.99
212.17	2004.96
212.39	2072.54
212.61	2156.51
212.83	1779.68
213.05	1820.64
213.26	1976.29
213.48	2043.87
213.70	1869.80
213.92	1896.42
214.14	2207.71
214.36	1871.84
214.57	1761.25
214.79	2107.36
215.01	2140.13
215.23	2168.80
215.45	1920.99
215.67	1830.88
215.88	2121.70
216.10	2250.72
216.32	1726.44
216.54	1869.80
216.76	2009.06
216.97	2078.69
217.19	1818.60
217.41	1927.14
217.63	2191.33
217.85	2228.19
218.07	1677.29
218.28	2131.94
218.50	2162.66
218.72	2224.09
218.94	1929.19
219.16	2017.25
219.37	2011.11
219.59	2185.18
219.81	1787.88
220.03	1832.93
220.25	2035.68
220.46	2275.29
220.68	1890.28
220.90	1763.30
221.12	2054.11
221.34	2033.63
221.55	1949.67
221.77	1687.53
221.99	1867.75
222.21	2090.98
222.43	2047.97
222.64	1787.88
222.86	2211.81
223.08	2060.26
223.30	1904.61
223.52	1906.66
223.73	2086.88
223.95	2267.10
224.17	1929.19
224.39	1861.60
224.60	2056.16
224.82	2002.91
225.04	1914.85
225.26	1845.22
225.48	1859.56
225.69	2162.66
225.91	1953.76
226.13	2054.11
226.35	2033.63
226.56	2054.11
226.78	1802.21
227.00	1800.16
227.22	2007.01
227.44	2068.45
227.65	1787.88
227.87	1845.22
228.09	2015.20
228.31	2127.84
228.52	1800.16
228.74	1783.78
228.96	2131.94
229.18	2052.06
229.39	1964.00
229.61	1783.78
229.83	1861.60
230.05	1972.19
230.26	2105.31
230.48	1880.04
230.70	2156.51
230.92	1990.63
231.13	1906.66
231.35	1853.41
231.57	1980.39
231.79	2220.00
232.00	1847.27
232.22	1812.45
232.44	2185.18
232.66	2127.84
232.87	1902.56
233.09	1892.32
233.31	2277.34
233.53	2000.87
233.74	1982.43
233.96	2050.02
234.18	2025.44
234.40	2052.06
234.61	1800.16
234.83	1837.03
235.05	2025.44
235.27	2054.11
235.48	1871.84
235.70	1931.23
235.92	2000.87
236.14	2107.36
236.35	1789.92
236.57	1990.63
236.79	2176.99
237.00	2009.06
237.22	1898.47
237.44	1984.48
237.66	1994.72
237.87	2316.25
238.09	1796.07
238.31	1771.49
238.53	2004.96
238.74	2099.17
238.96	1800.16
239.18	1830.88
239.39	1935.33
239.61	2136.03
239.83	1939.43
240.05	1810.40
240.26	1847.27
240.48	2205.66
240.70	1937.38
240.91	2056.16
241.13	1994.72
241.35	1855.46
241.56	1882.08
241.78	1810.40
242.00	2090.98
242.22	2138.08
242.43	2002.91
242.65	2156.51
242.87	2150.37
243.08	2111.46
243.30	1908.71
243.52	1918.95
243.73	2338.78
243.95	2203.61
244.17	1908.71
244.39	1757.16
244.60	2121.70
244.82	2123.74
245.04	1837.03
245.25	1685.48
245.47	2060.26
245.69	1990.63
245.90	1748.97
246.12	1638.38
246.34	2013.15
246.55	2119.65
246.77	2088.93
246.99	1955.81
247.20	1935.33
247.42	2312.16
247.64	1714.15
247.86	1628.14
248.07	2164.70
248.29	2000.87
248.51	1902.56
248.72	1880.04
248.94	2088.93
249.16	2099.17
249.37	1732.58
249.59	1955.81
249.81	2004.96
250.02	1970.15
250.24	2025.44
250.46	1857.51
250.67	2166.75
250.89	2025.44
251.11	1734.63
251.32	1914.85
251.54	2097.12
251.76	2054.11
251.97	1769.44
252.19	2074.59
252.40	2047.97
252.62	2179.04
252.84	2047.97
253.05	1966.05
253.27	2353.12
253.49	2140.13
253.70	1970.15
253.92	2031.58
254.14	2211.81
254.35	2115.55
254.57	1810.40
254.79	1814.50
255.00	2367.45
255.22	2242.53
255.44	1974.24
255.65	1869.80
255.87	1949.67
256.08	2045.92
256.30	1892.32
256.52	1796.07
256.73	2133.98
256.95	1994.72
257.17	1714.15
257.38	2109.41
257.60	2123.74
257.82	2068.45
258.03	1828.84
258.25	1816.55
258.46	1880.04
258.68	2111.46
258.90	1787.88
259.11	1718.25
259.33	2297.82
259.55	1925.09
259.76	2035.68
259.98	1818.60
260.19	1738.73
260.41	2027.49
260.63	1771.49
260.84	1824.74
261.06	2113.50
261.27	2217.95
261.49	1873.89
261.71	1892.32
261.92	1927.14
262.14	2066.40
262.35	1847.27
262.57	1714.15
262.79	1931.23
263.00	2011.11
263.22	1853.41
263.44	1849.32
263.65	2060.26
263.87	2109.41
264.08	1763.30
264.30	1914.85
264.52	2041.82
264.73	2138.08
264.95	1892.32
265.16	1933.28
265.38	2099.17
265.59	1968.10
265.81	2080.74
266.03	1937.38
266.24	2082.78
266.46	1988.58
266.67	1966.05
266.89	2123.74
267.11	2019.30
267.32	1925.09
267.54	1890.28
267.75	1869.80
267.97	1925.09
268.19	1968.10
268.40	1867.75
268.62	1669.09
268.83	2125.79
269.05	2078.69
269.26	2101.22
269.48	1892.32
269.70	1916.90
269.91	2144.22
270.13	1918.95
270.34	1964.00
270.56	1923.04
270.77	1992.67
270.99	1791.97
271.21	1992.67
271.42	2017.25
271.64	2185.18
271.85	1861.60
272.07	2015.20
272.28	2179.04
272.50	2074.59
272.71	2033.63
272.93	1955.81
273.15	1931.23
273.36	2029.54
273.58	1888.23
273.79	1859.56
274.01	2207.71
274.22	2318.30
274.44	1746.92
274.65	1830.88
274.87	1949.67
275.09	2107.36
275.30	1796.07
275.52	1843.17
275.73	2037.73
275.95	2240.48
276.16	1996.77
276.38	1943.52
276.59	2156.51
276.81	2228.19
277.02	2088.93
277.24	1796.07
277.45	2271.20
277.67	2181.09
277.89	1775.59
278.10	2017.25
278.32	2027.49
278.53	2011.11
278.75	1859.56
278.96	1990.63
279.18	2007.01
279.39	1861.60
279.61	1863.65
279.82	2129.89
280.04	1961.95
280.25	2023.39
280.47	1757.16
280.68	1746.92
280.90	2021.35
281.11	1986.53
281.33	1875.94
281.54	1824.74
281.76	1886.18
281.97	1826.79
282.19	1857.51
282.40	1945.57
282.62	1972.19
282.83	2220.00
283.05	1877.99
283.27	2074.59
283.48	1861.60
283.70	1994.72
283.91	1998.82
284.13	1822.69
284.34	1869.80
284.56	2123.74
284.77	1781.73
284.99	2033.63
285.20	1980.39
285.42	2125.79
285.63	1945.57
285.84	1992.67
286.06	1996.77
286.27	1888.23
286.49	1785.83
286.70	1816.55
286.92	2088.93
287.13	1964.00
287.35	1820.64
287.56	1873.89
287.78	2213.85
287.99	1914.85
288.21	1730.53
288.42	2320.35
288.64	2226.14
288.85	2090.98
289.07	1961.95
289.28	1865.70
289.50	1978.34
289.71	2052.06
289.93	1837.03
290.14	1708.01
290.36	2101.22
290.57	1943.52
290.79	2031.58
291.00	1929.19
291.22	1890.28
291.43	2410.46
291.64	1914.85
291.86	1943.52
292.07	2084.83
292.29	2252.77
292.50	2062.30
292.72	1828.84
292.93	2301.92
293.15	2346.97
293.36	2041.82
293.58	2088.93
293.79	2076.64
294.00	2148.32
294.22	1886.18
294.43	1888.23
294.65	2273.25
294.86	2209.76
295.08	2039.78
295.29	2269.15
295.51	2254.81
295.72	2412.51
295.94	2017.25
296.15	1701.86
296.36	2017.25
296.58	2084.83
296.79	2027.49
297.01	1984.48
297.22	2119.65
297.44	2097.12
297.65	2093.02
297.86	2160.61
298.08	2078.69
298.29	2363.36
298.51	2140.13
298.72	2047.97
298.94	2027.49
299.15	2129.89
299.36	2060.26
299.58	1943.52
299.79	2176.99
300.01	2213.85
300.22	1920.99
300.44	1935.33
300.65	2140.13
300.86	2133.98
301.08	1931.23
301.29	1970.15
301.51	2371.55
301.72	2461.66
301.93	2037.73
302.15	2033.63
302.36	2258.91
302.58	2269.15
302.79	2170.85
303.01	1972.19
303.22	2275.29
303.43	2289.63
303.65	1998.82
303.86	2127.84
304.08	2160.61
304.29	2082.78
304.50	2213.85
304.72	1912.80
304.93	2082.78
305.15	2543.58
305.36	1961.95
305.57	2193.37
305.79	2043.87
306.00	2287.58
306.22	2125.79
306.43	2080.74
306.64	2039.78
306.86	2549.72
307.07	2220.00
307.28	1980.39
307.50	2205.66
307.71	2346.97
307.93	2084.83
308.14	2013.15
308.35	2185.18
308.57	2215.90
308.78	2142.18
309.00	1976.29
309.21	2205.66
309.42	2217.95
309.64	2045.92
309.85	1900.52
310.06	2131.94
310.28	2150.37
310.49	1920.99
310.71	1693.67
310.92	2381.79
311.13	2150.37
311.35	1935.33
311.56	2213.85
311.77	2265.05
311.99	2279.39
312.20	1988.58
312.41	2205.66
312.63	2238.43
312.84	2199.52
313.06	1949.67
313.27	2158.56
313.48	2070.50
313.70	2185.18
313.91	2117.60
314.12	1925.09
314.34	2258.91
314.55	2168.80
314.76	1992.67
314.98	2080.74
315.19	2086.88
315.40	2244.57
315.62	2027.49
315.83	2201.57
316.04	2402.27
316.26	2215.90
316.47	2205.66
316.68	2273.25
316.90	1998.82
317.11	2252.77
317.32	2232.29
317.54	2086.88
317.75	2068.45
317.96	2158.56
318.18	2039.78
318.39	2000.87
318.60	2095.07
318.82	2097.12
319.03	1910.75
319.24	1964.00
319.46	2285.53
319.67	2246.62
319.88	2027.49
320.10	1978.34
320.31	1964.00
320.52	2191.33
320.74	1851.36
320.95	1843.17
321.16	1896.42
321.38	2412.51
321.59	1961.95
321.80	1794.02
322.02	2066.40
322.23	2502.62
322.44	1873.89
322.65	1847.27
322.87	2176.99
323.08	2181.09
323.29	2146.27
323.51	2240.48
323.72	2273.25
323.93	2080.74
324.15	2035.68
324.36	2191.33
324.57	2224.09
324.78	2301.92
325.00	2234.33
325.21	2082.78
325.42	2154.46
325.64	2164.70
325.85	1990.63
326.06	1912.80
326.28	2082.78
326.49	2174.94
326.70	2035.68
326.91	2117.60
327.13	2193.37
327.34	2127.84
327.55	2123.74
327.77	1968.10
327.98	2217.95
328.19	2105.31
328.40	2007.01
328.62	1968.10
328.83	2199.52
329.04	2013.15
329.25	2013.15
329.47	1953.76
329.68	2150.37
329.89	2248.67
330.11	2011.11
330.32	2019.30
330.53	1984.48
330.74	2293.72
330.96	2090.98
331.17	1855.46
331.38	2263.01
331.59	2080.74
331.81	2009.06
332.02	2037.73
332.23	2154.46
332.44	2162.66
332.66	2187.23
332.87	1837.03
333.08	2093.02
333.29	2238.43
333.51	2306.01
333.72	1966.05
333.93	2062.30
334.14	2322.40
334.36	2170.85
334.57	1900.52
334.78	2179.04
334.99	2299.87
335.21	2201.57
335.42	2115.55
335.63	2287.58
335.84	2146.27
336.06	2123.74
336.27	1957.86
336.48	2078.69
336.69	2346.97
336.91	2029.54
337.12	2131.94
337.33	2316.25
337.54	2035.68
337.75	2246.62
337.97	1914.85
338.18	2187.23
338.39	2113.50
338.60	1904.61
338.82	2224.09
339.03	2129.89
339.24	2039.78
339.45	2031.58
339.66	1945.57
339.88	2344.92
340.09	2031.58
340.30	2047.97
340.51	2037.73
340.73	2238.43
340.94	2351.07
341.15	1976.29
341.36	2045.92
341.57	2125.79
341.79	2301.92
342.00	2062.30
342.21	1937.38
342.42	1755.11
342.63	2088.93
342.85	2150.37
343.06	2004.96
343.27	1927.14
343.48	2093.02
343.69	1941.47
343.91	2136.03
344.12	2344.92
344.33	2021.35
344.54	2199.52
344.75	1861.60
344.97	1970.15
345.18	2041.82
345.39	2072.54
345.60	2004.96
345.81	2052.06
346.02	2078.69
346.24	2187.23
346.45	2097.12
346.66	1980.39
346.87	2082.78
347.08	1828.84
347.30	1888.23
347.51	2097.12
347.72	2148.32
347.93	2023.39
348.14	2226.14
348.35	1986.53
348.57	2080.74
348.78	1746.92
348.99	1935.33
349.20	2033.63
349.41	2355.16
349.62	2455.51
349.84	2160.61
350.05	2107.36
350.26	2082.78
350.47	2011.11
350.68	2033.63
350.89	2142.18
351.11	2082.78
351.32	1966.05
351.53	2058.21
351.74	2095.07
351.95	2422.75
352.16	2070.50
352.37	2031.58
352.59	2045.92
352.80	2248.67
353.01	2082.78
353.22	2191.33
353.43	2107.36
353.64	2148.32
353.86	1927.14
354.07	2152.42
354.28	1910.75
354.49	2138.08
354.70	2037.73
354.91	1935.33
355.12	2174.94
355.33	2289.63
355.55	1869.80
355.76	2123.74
355.97	2193.37
356.18	2197.47
356.39	2058.21
356.60	1966.05
356.81	2148.32
357.03	2326.49
357.24	2158.56
357.45	2205.66
357.66	2234.33
357.87	2332.64
358.08	2099.17
358.29	2131.94
358.50	2314.20
358.71	2328.54
358.93	2297.82
359.14	2295.77
359.35	2875.35
359.56	2400.22
359.77	2486.23
359.98	2566.10
360.19	2744.28
360.40	2922.45
360.61	2865.11
360.83	2877.40
361.04	3258.32
361.25	3487.69
361.46	3452.88
361.67	3282.89
361.88	3649.48
362.09	3682.25
362.30	4036.55
362.51	4386.75
362.72	4775.86
362.94	5052.34
363.15	4997.04
363.36	5236.66
363.57	5138.35
363.78	5173.17
363.99	5195.70
364.20	4720.57
364.41	4999.09
364.62	4870.07
364.83	4747.19
365.04	4612.03
365.26	4483.00
365.47	4501.44
365.68	4444.09
365.89	4253.63
366.10	4085.70
366.31	4478.91
366.52	3737.54
366.73	3678.15
366.94	3559.37
367.15	2983.89
367.36	2979.79
367.57	2893.78
367.78	2887.64
367.99	2750.42
368.21	2465.75
368.42	2490.33
368.63	2576.34
368.84	2715.61
369.05	2467.80
369.26	2410.46
369.47	2533.34
369.68	2600.92
369.89	2449.37
370.10	2502.62
370.31	2850.77
370.52	2559.96
370.73	2207.71
370.94	2471.90
371.15	2617.30
371.36	2605.02
371.57	2467.80
371.78	2455.51
371.99	2519.00
372.20	2783.19
372.42	2645.98
372.63	2527.19
372.84	2457.56
373.05	2562.01
373.26	2457.56
373.47	2535.39
373.68	2615.26
373.89	2588.63
374.10	2461.66
374.31	2791.38
374.52	2602.97
374.73	2617.30
374.94	2625.50
375.15	2760.66
375.36	2541.53
375.57	2584.54
375.78	2551.77
375.99	2516.95
376.20	2516.95
376.41	2691.03
376.62	2693.08
376.83	2877.40
377.04	2756.57
377.25	2963.41
377.46	2844.63
377.67	2922.45
377.88	3274.70
378.09	3352.52
378.30	3014.61
378.51	3321.81
378.72	3223.50
378.93	3659.72
379.14	3231.69
379.35	3393.48
379.56	3667.91
379.77	3950.53
379.98	3704.78
380.19	3684.30
380.40	3692.49
380.61	3614.66
380.82	3678.15
381.03	3782.60
381.24	3805.13
381.45	3598.28
381.66	3637.19
381.87	3549.13
382.08	3516.36
382.29	3536.84
382.50	3465.16
382.71	3555.27
382.92	3461.07
383.13	3516.36
383.34	3289.04
383.55	3151.82
383.76	3217.36
383.97	3274.70
384.18	3289.04
384.39	3254.22
384.60	3221.45
384.81	3043.28
385.02	3080.14
385.23	2953.17
385.44	2934.74
385.65	3385.29
385.86	3041.23
386.07	2883.54
386.28	2957.27
386.49	2594.78
386.70	2719.70
386.91	2789.33
387.11	3084.24
387.32	2885.59
387.53	2660.31
387.74	2813.91
387.95	2969.55
388.16	2789.33
388.37	3137.49
388.58	2951.12
388.79	2824.15
389.00	2873.30
389.21	2947.03
389.42	2787.29
389.63	2639.83
389.84	3106.77
390.05	2717.65
390.26	2731.99
390.47	2596.82
390.68	2865.11
390.89	2738.13
391.09	2953.17
391.30	2951.12
391.51	2985.94
391.72	2772.95
391.93	2891.73
392.14	2940.88
392.35	2877.40
392.56	3203.02
392.77	2967.51
392.98	2836.44
393.19	2998.23
393.40	3172.30
393.61	2826.20
393.82	3200.98
394.02	2910.16
394.23	3168.21
394.44	2947.03
394.65	3315.66
394.86	3114.96
395.07	3108.82
395.28	3061.71
395.49	2947.03
395.70	3428.30
395.91	3452.88
396.12	3119.06
396.32	3528.65
396.53	3532.75
396.74	3385.29
396.95	3454.92
397.16	4018.11
397.37	3493.83
397.58	3835.85
397.79	3477.45
398.00	3858.37
398.21	4181.95
398.41	4016.07
398.62	4038.59
398.83	4106.18
399.04	4702.14
399.25	4530.11
399.46	4460.48
399.67	4626.36
399.88	4679.61
400.09	4655.03
400.29	4917.17
400.50	5029.81
400.71	5058.48
400.92	4990.90
401.13	5298.10
401.34	5734.31
401.55	5490.60
401.76	5732.26
401.96	6070.18
402.17	6188.96
402.38	6410.14
402.59	6580.12
402.80	6447.01
403.01	6838.17
403.22	7249.81
403.43	7507.85
403.63	7458.70
403.84	7948.17
404.05	8003.46
404.26	8535.93
404.47	8613.76
404.68	8988.53
404.89	9283.44
405.09	9547.63
405.30	9731.95
405.51	10172.26
405.72	10796.89
405.93	11181.91
406.14	11433.81
406.35	12035.91
406.55	12506.95
406.76	12783.42
406.97	13096.76
407.18	13999.91
407.39	14364.45
407.60	14993.18
407.80	15486.74
408.01	15783.70
408.22	16523.01
408.43	16774.91
408.64	17522.42
408.85	18054.89
409.05	18591.46
409.26	19488.47
409.47	20033.23
409.68	20561.61
409.89	21673.65
410.10	21583.54
410.30	22711.97
410.51	23651.99
410.72	24327.82
410.93	24546.95
411.14	25448.06
411.35	26533.48
411.55	26885.73
411.76	27737.69
411.97	28302.93
412.18	29691.45
412.39	30072.37
412.59	30682.67
412.80	31766.04
413.01	32501.26
413.22	33678.85
413.43	34311.67
413.63	35061.22
413.84	35728.86
414.05	36097.50
414.26	37033.42
414.47	37938.62
414.67	38888.88
414.88	39691.68
415.09	40285.59
415.30	41246.09
415.51	42351.99
415.71	42147.20
415.92	43617.64
416.13	43832.68
416.34	44342.62
416.55	45088.08
416.75	45870.40
416.96	46187.84
417.17	47066.42
417.38	48194.85
417.59	49218.83
417.79	48913.69
418.00	49433.87
418.21	50806.01
418.42	50955.51
418.62	52212.96
418.83	52892.89
419.04	52151.52
419.25	53603.53
419.46	54070.47
419.66	54625.47
419.87	54844.60
420.08	55577.78
420.29	55137.46
420.49	56208.55
420.70	56542.37
420.91	56796.32
421.12	57119.90
421.32	57097.37
421.53	58193.03
421.74	58248.33
421.95	58315.91
422.15	58694.78
422.36	58928.25
422.57	59599.99
422.78	59104.38
422.98	60118.12
423.19	61078.62
423.40	60009.58
423.61	60861.54
423.81	62164.04
424.02	60988.51
424.23	61815.89
424.44	61791.31
424.64	60996.70
424.85	61690.96
425.06	62139.47
425.27	61613.14
425.47	62864.45
425.68	61934.67
425.89	62864.45
426.10	63233.08
426.30	63063.10
426.51	62274.63
426.72	62850.11
426.92	63419.45
427.13	63001.66
427.34	63118.40
427.55	63571.00
427.75	63581.24
427.96	63331.39
428.17	64058.41
428.38	63917.10
428.58	63337.53
428.79	63792.18
429.00	63370.30
429.20	63833.14
429.41	63114.30
429.62	63271.99
429.82	63175.74
430.03	63425.59
430.24	63806.51
430.45	63966.26
430.65	64257.07
430.86	64824.35
431.07	63675.44
431.27	64359.47
431.48	64361.51
431.69	63939.63
431.90	63783.99
432.10	63986.74
432.31	64494.63
432.52	63657.01
432.72	64697.38
432.93	64666.66
433.14	63710.26
433.34	64371.75
433.55	63114.30
433.76	64117.81
433.96	64879.65
434.17	63601.72
434.38	64629.80
434.58	64392.23
434.79	63747.12
435.00	64035.89
435.21	64484.39
435.41	64797.73
435.62	63538.23
435.83	64652.33
436.03	63413.30
436.24	64695.33
436.45	64050.22
436.65	63687.73
436.86	63759.41
437.07	63632.44
437.27	63970.35
437.48	64490.54
437.69	64089.13
437.89	63718.45
438.10	63155.26
438.31	64631.85
438.51	63444.02
438.72	63669.30
438.92	63771.70
439.13	63003.71
439.34	63300.67
439.54	64875.55
439.75	63882.29
439.96	62405.70
440.16	62252.11
440.37	63368.25
440.58	62567.49
440.78	62213.19
440.99	61447.25
441.20	62989.37
441.40	62798.91
441.61	61889.62
441.82	62082.12
442.02	61998.16
442.23	61561.94
442.43	61848.66
442.64	62446.66
442.85	61848.66
443.05	61475.93
443.26	62436.42
443.47	61146.20
443.67	61617.24
443.88	61477.97
444.08	61021.28
444.29	60249.19
444.50	60982.37
444.70	59599.99
444.91	60669.03
445.12	59528.31
445.32	59268.22
445.53	59993.20
445.73	59503.73
445.94	59290.74
446.15	58438.79
446.35	59655.28
446.56	59391.09
446.76	58688.64
446.97	59012.22
447.18	57560.21
447.38	57719.95
447.59	58969.21
447.79	58199.18
448.00	57367.70
448.21	57433.24
448.41	56831.13
448.62	56556.70
448.82	57179.29
449.03	56337.57
449.24	55712.94
449.44	56013.99
449.65	55676.08
449.85	56272.04
450.06	55962.79
450.27	54734.01
450.47	54756.54
450.68	54424.77
450.88	54336.71
451.09	54320.32
451.29	54015.18
451.50	53204.18
451.71	53439.70
451.91	53515.47
452.12	53374.16
452.32	52931.80
452.53	52249.83
452.73	52440.29
452.94	51836.14
453.15	52237.54
453.35	51999.97
453.56	51508.46
453.76	50719.99
453.97	50513.15
454.17	51029.24
454.38	50769.15
454.59	50400.51
454.79	49433.87
455.00	50584.83
455.20	50130.18
455.41	49079.57
455.61	49179.92
455.82	49722.63
456.02	49055.00
456.23	48594.20
456.44	48366.88
456.64	48043.30
456.85	47689.00
457.05	47908.13
457.26	48244.00
457.46	47897.89
457.67	47265.07
457.87	47377.71
458.08	47244.59
458.28	46859.57
458.49	46308.67
458.69	46916.92
458.90	46515.51
459.11	45899.08
459.31	46157.12
459.52	45725.00
459.72	44871.00
459.93	45907.27
460.13	45382.99
460.34	46210.37
460.54	45469.00
460.75	44305.76
460.95	44961.11
461.16	43922.79
461.36	44234.08
461.57	44584.28
461.77	44203.36
461.98	43963.75
462.18	44264.80
462.39	43724.13
462.59	44033.38
462.80	43308.40
463.00	43048.30
463.21	43548.01
463.41	42644.85
463.62	43036.02
463.82	42945.90
464.03	43005.30
464.23	42653.05
464.44	42521.98
464.64	42921.33
464.85	42208.64
465.05	42306.94
465.26	42268.03
465.46	41428.36
465.67	41889.15
465.87	42016.13
466.08	41551.24
466.28	42124.67
466.49	41631.11
466.69	41018.77
466.90	41588.10
467.10	41491.85
467.31	40512.92
467.51	41291.15
467.72	41002.38
467.92	41110.92
468.13	41569.67
468.33	40535.45
468.54	40916.37
468.74	41125.26
468.95	40144.28
469.15	40947.09
469.35	40480.15
469.56	39861.66
469.76	40109.47
469.97	40119.71
470.17	41069.97
470.38	39640.48
470.58	40471.96
470.79	40555.93
470.99	40492.44
471.20	40226.20
471.40	40258.97
471.61	40226.20
471.81	39816.61
472.01	39980.45
472.22	40095.13
472.42	39910.82
472.63	39945.63
472.83	39703.97
473.04	39724.45
473.24	40101.28
473.45	40424.86
473.65	39935.39
473.85	40023.45
474.06	39673.25
474.26	40091.04
474.47	40299.93
474.67	39460.26
474.88	39779.74
475.08	40144.28
475.28	39970.21
475.49	39873.95
475.69	39443.88
475.90	39503.27
476.10	39374.25
476.31	40084.89
476.51	39755.17
476.71	39550.37
476.92	39542.18
477.12	39898.53
477.33	39677.35
477.53	39845.28
477.73	39843.23
477.94	39054.76
478.14	39734.69
478.35	39003.56
478.55	39558.56
478.76	39390.63
478.96	39138.73
479.16	39284.14
479.37	39267.75
479.57	39368.10
479.78	39558.56
479.98	39077.29
480.18	39454.12
480.39	38665.65
480.59	38960.56
480.80	39204.27
481.00	39056.81
481.20	38751.66
481.41	39034.28
481.61	39312.81
481.81	39062.96
482.02	38729.14
482.22	38923.69
482.43	38665.65
482.63	38303.16
482.83	38161.85
483.04	39030.19
483.24	38366.65
483.45	38544.82
483.65	38399.41
483.85	37981.63
484.06	38407.61
484.26	37952.96
484.46	38227.38
484.67	37873.09
484.87	37750.21
485.07	38002.11
485.28	37694.91
485.48	37883.33
485.69	37367.24
485.89	37318.09
486.09	37242.31
486.30	36990.41
486.50	37318.09
486.70	37164.49
486.91	37045.71
487.11	37375.43
487.31	36877.77
487.52	36920.78
487.72	37195.21
487.92	36785.61
488.13	36754.90
488.33	36527.57
488.54	36371.92
488.74	36488.66
488.94	36855.25
489.15	35765.73
489.35	36410.84
489.55	36431.32
489.76	35810.78
489.96	36048.35
490.16	35845.60
490.37	35747.29
490.57	35939.80
490.77	35755.49
490.98	35724.77
491.18	35274.21
491.38	35556.83
491.59	35474.91
491.79	35327.46
491.99	35276.26
492.19	34858.48
492.40	35038.70
492.60	34579.95
492.80	35034.60
493.01	34641.39
493.21	35294.69
493.41	34651.63
493.62	34450.93
493.82	34600.43
494.02	34219.51
494.23	33957.37
494.43	34332.15
494.63	34016.76
494.84	34461.17
495.04	33852.92
495.24	34113.02
495.44	33834.49
495.65	33510.91
495.85	34366.96
496.05	33852.92
496.26	33637.89
496.46	33330.69
496.66	33185.29
496.86	33316.36
497.07	33447.43
497.27	33179.14
497.47	33039.88
497.68	32988.68
497.88	33687.04
498.08	32759.31
498.28	32835.08
498.49	32878.09
498.69	32878.09
498.89	32337.43
499.10	32986.63
499.30	32683.53
499.50	32611.85
499.70	32292.37
499.91	32448.02
500.11	32185.88
500.31	32140.82
500.51	32122.39
500.72	32312.85
500.92	32296.47
501.12	32267.80
501.33	32038.42
501.53	31716.89
501.73	31677.98
501.93	31448.61
502.14	31774.24
502.34	32269.84
502.54	31614.49
502.74	31532.57
502.95	31372.83
503.15	31045.16
503.35	31417.89
503.55	31645.21
503.76	31084.07
503.96	30985.77
504.16	31071.78
504.36	30916.14
504.57	30314.03
504.77	30238.26
504.97	31098.41
505.17	30680.62
505.37	30594.61
505.58	30230.07
505.78	30348.85
505.98	30846.51
506.18	30277.17
506.39	30047.80
506.59	30330.42
506.79	29914.68
506.99	30099.00
507.20	30262.83
507.40	29775.42
507.60	30090.80
507.80	29779.51
508.00	29826.62
508.21	29959.73
508.41	29718.07
508.61	29609.53
508.81	29883.96
509.01	29136.45
509.22	29683.26
509.42	28859.98
509.62	29226.56
509.82	29056.58
510.02	29705.79
510.23	29101.64
510.43	29331.01
510.63	29333.06
510.83	29191.75
511.03	29066.82
511.24	28982.85
511.44	29175.36
511.64	28976.71
511.84	28546.64
512.04	28913.22
512.25	28780.10
512.45	28941.89
512.65	28757.58
512.85	28259.92
513.05	28405.33
513.26	28327.50
513.46	28118.61
513.66	28126.80
513.86	28376.66
514.06	27995.73
514.26	28139.09
514.47	27360.86
514.67	27498.08
514.87	27819.61
515.07	27414.11
515.27	27698.78
515.47	27829.85
515.68	27289.18
515.88	27338.33
516.08	27074.15
516.28	27217.50
516.48	27358.81
516.68	27160.16
516.89	26717.80
517.09	26623.59
517.29	26711.66
517.49	26635.88
517.69	27047.52
517.89	26291.82
518.09	26435.18
518.30	26306.16
518.50	26013.30
518.70	25929.33
518.90	26033.78
519.10	26281.58
519.30	25847.41
519.50	25841.27
519.71	25943.67
519.91	25464.44
520.11	25581.18
520.31	25495.16
520.51	25736.82
520.71	25298.56
520.91	24907.40
521.12	25030.27
521.32	25017.99
521.52	24878.72
521.72	24424.08
521.92	24495.75
522.12	24616.58
522.32	24657.54
522.52	24409.74
522.73	24243.85
522.93	24290.96
523.13	24276.62
523.33	23676.57
523.53	23946.90
523.73	23643.80
523.93	23862.93
524.13	23719.57
524.33	23731.86
524.54	23383.71
524.74	23156.38
524.94	22701.73
525.14	23088.80
525.34	22978.21
525.54	22597.29
525.74	22521.51
525.94	22679.21
526.14	22025.90
526.34	22398.63
526.55	21921.46
526.75	22091.44
526.95	21960.37
527.15	21825.20
527.35	21448.38
527.55	21528.25
527.75	21853.87
527.95	21249.72
528.15	21186.24
528.35	20733.64
528.55	21018.30
528.75	20584.13
528.96	20346.57
529.16	20575.94
529.36	20389.58
529.56	20033.23
529.76	19822.29
529.96	20027.09
530.16	20184.78
530.36	19824.34
530.56	19594.96
530.76	19631.83
530.96	19179.23
531.16	19607.25
531.36	19257.05
531.56	19482.33
531.76	18806.50
531.96	18882.27
532.17	18689.76
532.37	18427.62
532.57	18409.19
532.77	18579.17
532.97	17966.83
533.17	18390.76
533.37	17985.26
533.57	17878.77
533.77	18134.76
533.97	17544.95
534.17	17786.61
534.37	17540.85
534.57	17473.27
534.77	17602.29
534.97	16959.23
535.17	16992.00
535.37	17024.76
535.57	16721.66
535.77	16770.82
535.97	16244.49
536.17	16217.86
536.37	16334.60
536.57	16434.95
536.77	16361.22
536.97	15742.74
537.17	16293.64
537.37	15652.63
537.57	15640.34
537.77	15757.07
537.97	15261.46
538.18	15423.25
538.38	15159.06
538.58	15771.41
538.78	15269.66
538.98	15179.54
539.18	14884.64
539.38	14808.86
539.58	14683.94
539.78	14970.65
539.98	14597.92
540.18	14671.65
540.38	14350.12
540.58	14589.73
540.78	13907.76
540.98	13954.86
541.18	14200.62
541.38	14063.40
541.58	13993.77
541.77	13594.42
541.97	13809.45
542.17	13823.79
542.37	13328.18
542.57	13385.52
542.77	13319.99
542.97	13578.03
543.17	12965.69
543.37	13299.51
543.57	12889.92
543.77	13240.12
543.97	13049.66
544.17	12683.07
544.37	12738.37
544.57	12715.84
544.77	12732.22
544.97	12472.13
545.17	12656.45
545.37	12721.98
545.57	12238.66
545.77	12246.85
545.97	12083.02
546.17	12240.71
546.37	11898.70
546.57	11695.95
546.77	11837.26
546.97	11867.98
547.17	11409.23
547.37	11661.13
547.57	11620.17
547.76	11403.09
547.96	11587.41
548.16	11327.32
548.36	11458.39
548.56	10970.97
548.76	11237.20
548.96	10946.39
549.16	10825.56
549.36	11081.56
549.56	10704.73
549.76	11183.96
549.96	10475.36
550.16	10514.27
550.36	10428.26
550.56	10614.62
550.75	10237.80
550.95	10649.44
551.15	10229.60
551.35	9975.66
551.55	10207.08
551.75	10266.47
551.95	10229.60
552.15	9682.80
552.35	10090.34
552.55	9914.22
552.75	9740.14
552.95	9463.66
553.14	9678.70
553.34	9766.76
553.54	9391.98
553.74	9414.51
553.94	9289.59
554.14	9150.32
554.34	9234.29
554.54	9215.86
554.74	9342.83
554.94	9193.33
555.13	9168.76
555.33	8499.07
555.53	9052.02
555.73	8578.94
555.93	8791.93
556.13	8906.62
556.33	8961.91
556.53	9045.88
556.73	8501.12
556.92	8826.75
557.12	8494.97
557.32	8433.54
557.52	8175.49
557.72	8310.66
557.92	8406.91
558.12	8191.88
558.32	8398.72
558.51	8210.31
558.71	8173.44
558.91	8404.86
559.11	8130.44
559.31	8138.63
559.51	8132.48
559.71	7997.32
559.91	7866.25
560.10	7671.69
560.30	7952.26
560.50	7743.37
560.70	7620.49
560.90	7546.76
561.10	7507.85
561.29	7808.90
561.49	7186.32
561.69	7221.14
561.89	7296.91
562.09	7374.74
562.29	7450.51
562.49	6920.09
562.68	7088.02
562.88	7473.04
563.08	7077.78
563.28	6793.11
563.48	7174.03
563.68	7251.86
563.87	6993.81
564.07	6764.44
564.27	6793.11
564.47	6709.15
564.67	6401.95
564.87	6477.73
565.06	6596.51
565.26	6629.27
565.46	6518.68
565.66	6141.86
565.86	6842.26
566.05	6227.87
566.25	6158.24
566.45	6160.29
566.65	6371.23
566.85	6315.94
567.05	6000.55
567.24	5904.29
567.44	6217.63
567.64	6363.04
567.84	5834.66
568.04	5814.18
568.23	6111.14
568.43	6377.37
568.63	5455.79
568.83	5842.85
569.03	5951.40
569.22	5754.79
569.42	5912.49
569.62	5511.08
569.82	5908.39
570.02	5906.34
570.21	5617.58
570.41	5345.20
570.61	5588.91
570.81	5863.33
571.00	5525.42
571.20	5300.14
571.40	5758.89
571.60	5564.33
571.80	5330.86
571.99	5365.68
572.19	5470.12
572.39	5486.51
572.59	5011.38
572.78	4896.69
572.98	5130.16
573.18	5146.55
573.38	5048.24
573.57	5167.03
573.77	5136.31
573.97	5253.04
574.17	4913.08
574.36	5015.48
574.56	4913.08
574.76	4868.02
574.96	4743.10
575.15	5017.52
575.35	4972.47
575.55	4861.88
575.75	4911.03
575.94	4722.62
576.14	4954.04
576.34	4929.46
576.54	4648.89
576.73	4499.39
576.93	4675.51
577.13	4614.07
577.33	4913.08
577.52	4507.58
577.72	4403.13
577.92	4523.96
578.12	4437.95
578.31	4808.63
578.51	4962.23
578.71	4751.29
578.90	4204.48
579.10	4628.41
579.30	4433.85
579.50	4343.74
579.69	4224.96
579.89	4233.15
580.09	4663.22
580.29	4505.53
580.48	4282.30
580.68	3993.54
580.88	4417.47
581.07	4188.10
581.27	4157.38
581.47	4151.23
581.66	4108.23
581.86	4542.39
582.06	3999.68
582.26	4024.26
582.45	3981.25
582.65	4274.11
582.85	3850.18
583.04	3678.15
583.24	4083.65
583.44	3925.96
583.63	3954.63
583.83	3764.17
584.03	3901.38
584.22	4192.19
584.42	3753.93
584.62	3839.94
584.82	3979.20
585.01	4038.59
585.21	3786.69
585.41	3807.17
585.60	3819.46
585.80	3755.97
586.00	3633.10
586.19	3540.94
586.39	3612.62
586.59	3762.12
586.78	3614.66
586.98	3667.91
587.18	3663.82
587.37	3925.96
587.57	3463.12
587.77	3741.64
587.96	3479.50
588.16	3674.06
588.36	3413.96
588.55	3409.87
588.75	3854.28
588.94	3362.76
589.14	3377.10
589.34	3493.83
589.53	3676.10
589.73	3526.60
589.93	3246.03
590.12	3256.27
590.32	3442.64
590.52	3483.59
590.71	3418.06
590.91	3188.69
591.11	3387.34
591.30	3491.79
591.50	3229.65
591.69	3030.99
591.89	3581.90
592.09	3446.73
592.28	3225.55
592.48	3172.30
592.68	3495.88
592.87	3319.76
593.07	3092.43
593.26	3139.54
593.46	3110.86
593.66	3459.02
593.85	3112.91
594.05	3147.73
594.24	3227.60
594.44	3074.00
594.64	3217.36
594.83	2764.76
595.03	3581.90
595.23	3137.49
595.42	2987.99
595.62	3063.76
595.81	3139.54
596.01	2951.12
596.20	3065.81
596.40	2824.15
596.60	2983.89
596.79	3389.39
596.99	2766.81
597.18	2826.20
597.38	2979.79
597.58	3035.09
597.77	2643.93
597.97	2682.84
598.16	2934.74
598.36	3131.34
598.56	2594.78
598.75	3112.91
598.95	3043.28
599.14	3153.87
599.34	2840.53
599.53	2715.61
599.73	2916.31
599.93	3192.78
600.12	2891.73
600.32	2963.41
600.51	2891.73
600.71	2873.30
600.90	2803.67
601.10	2908.12
601.29	3293.13
601.49	2951.12
601.69	2699.22
601.88	2836.44
602.08	3000.27
602.27	2961.36
602.47	2590.68
602.66	2652.12
602.86	2955.22
603.05	3059.67
603.25	2797.53
603.45	2688.98
603.64	2926.55
603.84	2926.55
604.03	2572.25
604.23	2736.09
604.42	2856.92
604.62	2828.24
604.81	2553.82
605.01	2836.44
605.20	3002.32
605.40	2770.90
605.59	2449.37
605.79	2545.63
605.98	2746.33
606.18	2959.31
606.37	2811.86
606.57	2641.88
606.77	2811.86
606.96	2568.15
607.16	2385.88
607.35	2410.46
607.55	2738.13
607.74	2820.05
607.94	2617.30
608.13	2514.91
608.33	2703.32
608.52	2738.13
608.72	2480.09
608.91	2482.14
609.11	2711.51
609.30	2764.76
609.50	2555.86
609.69	2375.64
609.89	2877.40
610.08	2789.33
610.28	2328.54
610.47	2537.43
610.67	2631.64
610.86	2775.00
611.06	2727.89
611.25	2465.75
611.44	2639.83
611.64	2559.96
611.83	2648.02
612.03	2469.85
612.22	2586.58
612.42	2639.83
612.61	2394.08
612.81	2441.18
613.00	2631.64
613.20	2541.53
613.39	2340.83
613.59	2555.86
613.78	2500.57
613.98	2920.40
614.17	2392.03
614.37	2582.49
614.56	2475.99
614.75	2572.25
614.95	2306.01
615.14	2320.35
615.34	2332.64
615.53	2824.15
615.73	2627.54
615.92	2383.84
616.12	2418.65
616.31	2541.53
616.50	2508.76
616.70	2303.96
616.89	2576.34
617.09	2787.29
617.28	2457.56
617.48	2369.50
617.67	2508.76
617.87	2666.46
618.06	2394.08
618.25	2131.94
618.45	2494.43
618.64	2734.04
618.84	2443.23
619.03	2359.26
619.23	2437.08
619.42	2334.68
619.61	2398.17
619.81	2408.41
620.00	2410.46
620.20	2559.96
620.39	2478.04
620.58	2220.00
620.78	2260.96
620.97	2467.80
621.17	2150.37
621.36	2183.13
621.55	2615.26
621.75	2549.72
621.94	2533.34
622.14	2115.55
622.33	2174.94
622.52	2422.75
622.72	1892.32
622.91	2240.48
623.11	2455.51
623.30	2369.50
623.49	2324.44
623.69	2228.19
623.88	2478.04
624.08	2459.61
624.27	2353.12
624.46	2168.80
624.66	2306.01
624.85	2531.29
625.05	2412.51
625.24	2330.59
625.43	2344.92
625.63	2338.78
625.82	2148.32
626.01	1972.19
626.21	2404.32
626.40	2521.05
626.59	2246.62
626.79	2326.49
626.98	2441.18
627.18	2260.96
627.37	2306.01
627.56	2025.44
627.76	2195.42
627.95	2172.89
628.14	2031.58
628.34	2250.72
628.53	2265.05
628.72	2295.77
628.92	2095.07
629.11	2232.29
629.30	2211.81
629.50	2174.94
629.69	2217.95
629.88	2195.42
630.08	2197.47
630.27	2295.77
630.46	2117.60
630.66	2166.75
630.85	2185.18
631.04	2361.31
631.24	2324.44
631.43	2025.44
631.62	2220.00
631.82	2418.65
632.01	2156.51
632.20	2041.82
632.40	2748.37
632.59	2453.47
632.78	2109.41
632.98	2027.49
633.17	2363.36
633.36	2475.99
633.56	2050.02
633.75	2109.41
633.94	2023.39
634.14	2559.96
634.33	2111.46
634.52	2228.19
634.71	2287.58
634.91	2553.82
635.10	2168.80
635.29	2023.39
635.49	2355.16
635.68	2279.39
635.87	2107.36
636.07	2033.63
636.26	2236.38
636.45	2443.23
636.64	2287.58
636.84	2183.13
637.03	2357.21
637.22	2355.16
637.42	2138.08
637.61	2031.58
637.80	2271.20
637.99	2152.42
638.19	2168.80
638.38	2215.90
638.57	2207.71
638.76	2242.53
638.96	1953.76
639.15	2353.12
639.34	2179.04
639.54	2164.70
639.73	2004.96
639.92	2000.87
640.11	2047.97
640.31	2314.20
640.50	2131.94
640.69	2174.94
640.88	2213.85
641.08	2277.34
641.27	1968.10
641.46	2066.40
641.65	1949.67
641.85	2250.72
642.04	2230.24
642.23	2009.06
642.42	2230.24
642.62	2213.85
642.81	1966.05
643.00	2189.28
643.19	2213.85
643.38	2133.98
643.58	1843.17
643.77	2021.35
643.96	2287.58
644.15	2308.06
644.35	2074.59
644.54	1877.99
644.73	2228.19
644.92	2174.94
645.12	2248.67
645.31	1800.16
645.50	2213.85
645.69	2152.42
645.88	1972.19
646.08	1910.75
646.27	2047.97
646.46	2021.35
646.65	2066.40
646.84	2015.20
647.04	2295.77
647.23	2086.88
647.42	2090.98
647.61	2131.94
647.80	2144.22
648.00	2273.25
648.19	2043.87
648.38	2035.68
648.57	2154.46
648.76	2181.09
648.96	2047.97
649.15	2160.61
649.34	2090.98
649.53	2279.39
649.72	1931.23
649.92	2183.13
650.11	1933.28
650.30	2072.54
650.49	1853.41
650.68	1925.09
650.87	2082.78
651.07	1980.39
651.26	1968.10
651.45	1931.23
651.64	2041.82
651.83	2174.94
652.02	1861.60
652.22	1945.57
652.41	2066.40
652.60	2148.32
652.79	1847.27
652.98	1968.10
653.17	2265.05
653.37	2105.31
653.56	1964.00
653.75	2033.63
653.94	2074.59
654.13	2191.33
654.32	1933.28
654.51	2011.11
654.71	2162.66
654.90	2164.70
655.09	1834.98
655.28	2037.73
655.47	2275.29
655.66	2287.58
655.85	2060.26
656.05	2043.87
656.24	2260.96
656.43	2156.51
656.62	1968.10
656.81	2117.60
657.00	2072.54
657.19	2027.49
657.38	1890.28
657.58	2072.54
657.77	2050.02
657.96	2150.37
658.15	2035.68
658.34	2035.68
658.53	2148.32
658.72	2013.15
658.91	1976.29
659.10	2162.66
659.30	2179.04
659.49	2138.08
659.68	1998.82
659.87	2109.41
660.06	2205.66
660.25	2136.03
660.44	2093.02
660.63	1802.21
660.82	2248.67
661.01	2142.18
661.21	1968.10
661.40	1931.23
661.59	2027.49
661.78	2000.87
661.97	1949.67
662.16	2035.68
662.35	2062.30
662.54	2213.85
662.73	2043.87
662.92	1970.15
663.11	2199.52
663.30	2082.78
663.50	1951.71
663.69	1802.21
663.88	2170.85
664.07	2152.42
664.26	1959.91
664.45	2086.88
664.64	2066.40
664.83	1970.15
665.02	1812.45
665.21	2164.70
665.40	2029.54
665.59	2140.13
665.78	1992.67
665.97	2066.40
666.16	2035.68
666.35	1996.77
666.54	1884.13
666.73	2189.28
666.93	1884.13
667.12	2121.70
667.31	2074.59
667.50	2027.49
667.69	2101.22
667.88	1935.33
668.07	2115.55
668.26	1896.42
668.45	2226.14
668.64	2222.05
668.83	1828.84
669.02	1953.76
669.21	1820.64
669.40	2097.12
669.59	2074.59
669.78	2007.01
669.97	2021.35
670.16	2148.32
670.35	1906.66
670.54	1931.23
670.73	2052.06
670.92	1861.60
671.11	2062.30
671.30	2029.54
671.49	2281.44
671.68	2113.50
671.87	1998.82
672.06	1953.76
672.25	2176.99
672.44	2252.77
672.63	1798.12
672.82	2027.49
673.01	2084.83
673.20	2205.66
673.39	1927.14
673.58	1931.23
673.77	1912.80
673.96	1877.99
674.15	1968.10
674.34	1974.24
674.53	2103.26
674.72	2015.20
674.91	2144.22
675.10	1953.76
675.29	2072.54
675.48	1857.51
675.67	1890.28
675.86	2056.16
676.05	2097.12
676.24	1959.91
676.43	2033.63
676.62	2183.13
676.81	2050.02
677.00	2312.16
677.19	1781.73
677.38	1877.99
677.57	2107.36
677.75	2211.81
677.94	1943.52
678.13	1783.78
678.32	2031.58
678.51	2281.44
678.70	1796.07
678.89	2123.74
679.08	1794.02
679.27	2080.74
679.46	1923.04
679.65	1939.43
679.84	1843.17
680.03	2052.06
680.22	1984.48
680.41	2123.74
680.60	2279.39
680.79	2203.61
680.97	1812.45
681.16	1871.84
681.35	2138.08
681.54	2103.26
681.73	1828.84
681.92	1951.71
682.11	2045.92
682.30	2082.78
682.49	1931.23
682.68	1828.84
682.87	2031.58
683.06	2074.59
683.25	2045.92
683.43	1871.84
683.62	2185.18
683.81	2166.75
684.00	1972.19
684.19	1984.48
684.38	2148.32
684.57	2338.78
684.76	1970.15
684.95	1914.85
685.14	2156.51
685.32	2064.35
685.51	1839.08
685.70	2037.73
685.89	2084.83
686.08	2002.91
686.27	1828.84
686.46	1910.75
686.65	1955.81
686.83	2031.58
687.02	1935.33
687.21	1857.51
687.40	2101.22
687.59	1935.33
687.78	2037.73
687.97	1804.26
688.16	2205.66
688.34	2250.72
688.53	1791.97
688.72	2017.25
688.91	2138.08
689.10	2029.54
689.29	1923.04
689.48	1927.14
689.66	2054.11
689.85	2183.13
690.04	2035.68
690.23	2088.93
690.42	1972.19
690.61	2111.46
690.80	1982.43
690.98	1880.04
691.17	2224.09
691.36	2498.52
691.55	1914.85
691.74	1884.13
691.93	1941.47
692.11	2015.20
692.30	1894.37
692.49	2224.09
692.68	2209.76
692.87	2013.15
693.06	1775.59
693.24	1964.00
693.43	2056.16
693.62	2013.15
693.81	1802.21
694.00	1861.60
694.19	2144.22
694.37	1957.86
694.56	1843.17
694.75	1933.28
694.94	1964.00
695.13	1871.84
695.31	1832.93
695.50	1937.38
695.69	2340.83
695.88	2238.43
696.07	2144.22
696.25	2095.07
696.44	2076.64
696.63	2252.77
696.82	1857.51
697.01	1791.97
697.19	1959.91
697.38	2144.22
697.57	1906.66
697.76	1894.37
697.95	2142.18
698.13	2039.78
698.32	1746.92
698.51	1966.05
698.70	2224.09
698.88	1945.57
699.07	1816.55
699.26	1859.56
699.45	2025.44
699.64	2133.98
699.82	2002.91
700.01	2074.59
700.20	1855.46
700.39	2115.55
700.57	1920.99
700.76	2105.31
700.95	1816.55
701.14	2207.71
701.32	1818.60
701.51	1976.29
701.70	2013.15
701.89	2000.87
702.07	1937.38
702.26	1949.67
702.45	2103.26
702.64	2140.13
702.82	1867.75
703.01	2029.54
703.20	1951.71
703.39	2056.16
703.57	2021.35
703.76	2244.57
703.95	2015.20
704.14	1984.48
704.32	1714.15
704.51	2019.30
704.70	1886.18
704.89	1957.86
705.07	1955.81
705.26	2070.50
705.45	1892.32
705.63	1984.48
705.82	1961.95
706.01	1935.33
706.20	1947.62
706.38	1970.15
706.57	1810.40
706.76	1824.74
706.94	1818.60
707.13	2056.16
707.32	2121.70
707.51	1806.31
707.69	1933.28
707.88	2301.92
708.07	1791.97
708.25	1816.55
708.44	1959.91
708.63	1812.45
708.81	1843.17
709.00	1925.09
709.19	2086.88
709.37	1890.28
709.56	1898.47
709.75	1972.19
709.94	2109.41
710.12	1992.67
710.31	1888.23
710.50	2017.25
710.68	2140.13
710.87	2127.84
711.06	1939.43
711.24	2084.83
711.43	1974.24
711.62	2265.05
711.80	1822.69
711.99	2031.58
712.18	1888.23
712.36	2172.89
712.55	1968.10
712.74	1914.85
712.92	1998.82
713.11	2052.06
713.30	1857.51
713.48	1959.91
713.67	1978.34
713.85	2107.36
714.04	1935.33
714.23	2275.29
714.41	1908.71
714.60	2090.98
714.79	1863.65
714.97	2117.60
715.16	2004.96
715.35	2224.09
715.53	1814.50
715.72	1976.29
715.91	1914.85
716.09	1968.10
716.28	1937.38
716.46	1933.28
716.65	2205.66
716.84	2281.44
717.02	1824.74
717.21	1910.75
717.40	1925.09
717.58	1908.71
717.77	2007.01
717.95	2060.26
718.14	2195.42
718.33	2199.52
718.51	1937.38
718.70	1855.46
718.88	2004.96
719.07	1910.75
719.26	1869.80
719.44	1908.71
719.63	1900.52
719.81	1918.95
720.00	1920.99
720.19	1800.16
720.37	1951.71
720.56	2131.94
720.74	2002.91
720.93	1906.66
721.12	1953.76
721.30	2125.79
721.49	1859.56
721.67	1855.46
721.86	2050.02
722.04	2080.74
722.23	1880.04
722.42	1933.28
722.60	1900.52
722.79	2160.61
722.97	1937.38
723.16	1912.80
723.34	1990.63
723.53	2004.96
723.72	2140.13
723.90	2009.06
724.09	1787.88
724.27	2238.43
724.46	1970.15
724.64	1900.52
724.83	1970.15
725.01	2095.07
725.20	1781.73
725.39	1908.71
725.57	2246.62
725.76	2119.65
725.94	1884.13
726.13	1849.32
726.31	1902.56
726.50	1939.43
726.68	2011.11
726.87	2043.87
727.05	1951.71
727.24	2041.82
727.42	1961.95
727.61	1877.99
727.80	1703.91
727.98	2222.05
728.17	1816.55
728.35	1890.28
728.54	2080.74
728.72	1953.76
728.91	2004.96
729.09	1855.46
729.28	2136.03
729.46	2103.26
729.65	1966.05
729.83	1939.43
730.02	2215.90
730.20	2074.59
730.39	2168.80
730.57	1970.15
730.76	1892.32
730.94	2160.61
731.13	2031.58
731.31	1802.21
731.50	1855.46
731.68	1935.33
731.87	1814.50
732.05	1978.34
732.24	2045.92
732.42	2013.15
732.61	1867.75
732.79	1976.29
732.98	2242.53
733.16	2166.75
733.35	1832.93
733.53	1972.19
733.71	1933.28
733.90	2056.16
734.08	2017.25
734.27	2041.82
734.45	1984.48
734.64	1961.95
734.82	1806.31
735.01	1925.09
735.19	1984.48
735.38	2115.55
735.56	2086.88
735.75	2142.18
735.93	1900.52
736.11	2103.26
736.30	1929.19
736.48	1896.42
736.67	2088.93
736.85	2027.49
737.04	1882.08
737.22	2105.31
737.41	1988.58
737.59	1816.55
737.77	1986.53
737.96	1839.08
738.14	2185.18
738.33	2117.60
738.51	1863.65
738.70	2047.97
738.88	1677.29
739.06	2111.46
739.25	1986.53
739.43	1906.66
739.62	2033.63
739.80	2121.70
739.99	1994.72
740.17	1935.33
740.35	2142.18
740.54	2013.15
740.72	1867.75
740.91	2013.15
741.09	1964.00
741.27	2248.67
741.46	2056.16
741.64	1888.23
741.83	2172.89
742.01	2123.74
742.19	1923.04
742.38	1884.13
742.56	2082.78
742.75	2058.21
742.93	2043.87
743.11	2142.18
743.30	2168.80
743.48	2017.25
743.67	1984.48
743.85	2004.96
744.03	1994.72
744.22	2189.28
744.40	1976.29
744.58	1959.91
744.77	2082.78
744.95	2164.70
745.14	1777.64
745.32	1966.05
745.50	1968.10
745.69	2025.44
745.87	1738.73
746.05	2150.37
746.24	1976.29
746.42	1759.21
746.61	1894.37
746.79	1966.05
746.97	2197.47
747.16	2160.61
747.34	2136.03
747.52	2101.22
747.71	2181.09
747.89	1970.15
748.07	1890.28
748.26	1798.12
748.44	2254.81
748.62	2070.50
748.81	1964.00
748.99	1900.52
749.17	2068.45
749.36	2125.79
749.54	1859.56
749.72	1943.52
749.91	1859.56
750.09	2088.93
750.27	1841.12
750.46	1746.92
750.64	2111.46
750.82	2045.92
751.01	1779.68
751.19	1935.33
751.37	2072.54
751.56	2154.46
751.74	1863.65
751.92	1918.95
752.10	2052.06
752.29	1918.95
752.47	2023.39
752.65	1935.33
752.84	1976.29
753.02	1927.14
753.20	2050.02
753.39	1976.29
753.57	2097.12
753.75	2144.22
753.93	2019.30
754.12	1834.98
754.30	1945.57
754.48	2060.26
754.67	1849.32
754.85	1796.07
755.03	1986.53
755.21	2437.08
755.40	2054.11
755.58	1847.27
755.76	2164.70
755.95	1988.58
756.13	1738.73
756.31	1828.84
756.49	2011.11
756.68	1945.57
756.86	1802.21
757.04	2058.21
757.22	2234.33
757.41	2156.51
757.59	2164.70
757.77	1992.67
757.95	2289.63
758.14	1992.67
758.32	1964.00
758.50	2097.12
758.68	2252.77
758.87	2295.77
759.05	2009.06
759.23	2148.32
759.41	2015.20
759.60	2191.33
759.78	2090.98
759.96	1808.36
760.14	1998.82
760.33	1933.28
760.51	1949.67
760.69	1855.46
760.87	2004.96
761.05	2009.06
761.24	1810.40
761.42	2062.30
761.60	2121.70
761.78	2250.72
761.97	1935.33
762.15	2090.98
762.33	2244.57
762.51	2052.06
762.69	2015.20
762.88	2142.18
763.06	2336.73
763.24	2050.02
763.42	2217.95
763.60	2050.02
763.79	1777.64
763.97	2060.26
764.15	1748.97
764.33	2123.74
764.51	2115.55
764.70	2113.50
764.88	2160.61
765.06	2000.87
765.24	1900.52
765.42	2267.10
765.61	2045.92
765.79	1998.82
765.97	2002.91
766.15	2129.89
766.33	2029.54
766.51	1888.23
766.70	1923.04
766.88	2308.06
767.06	1994.72
767.24	1912.80
767.42	1916.90
767.60	2072.54
767.79	1996.77
767.97	2033.63
768.15	1923.04
768.33	2078.69
768.51	1998.82
768.69	2181.09
768.88	2103.26
769.06	2181.09
769.24	1988.58
769.42	2238.43
769.60	1949.67
769.78	1972.19
769.96	1798.12
770.15	2326.49
770.33	2068.45
770.51	2152.42
770.69	2101.22
770.87	1961.95
771.05	2076.64
771.23	2197.47
771.41	1964.00
771.60	1828.84
771.78	2127.84
771.96	2115.55
772.14	1978.34
772.32	2158.56
772.50	2086.88
772.68	2150.37
772.86	2058.21
773.05	2004.96
773.23	2340.83
773.41	2189.28
773.59	2103.26
773.77	2015.20
773.95	2148.32
774.13	2232.29
774.31	1861.60
774.49	2123.74
774.68	2015.20
774.86	2332.64
775.04	2107.36
775.22	1945.57
775.40	1845.22
775.58	1976.29
775.76	2029.54
775.94	2013.15
776.12	2109.41
776.30	2148.32
776.48	2095.07
776.66	2164.70
776.85	2023.39
777.03	2279.39
777.21	1980.39
777.39	2136.03
777.57	2316.25
777.75	2004.96
777.93	2058.21
778.11	2109.41
778.29	2021.35
778.47	2097.12
778.65	2283.49
778.83	2379.74
779.01	2318.30
779.19	2287.58
779.37	2086.88
779.55	2172.89
779.74	1982.43
779.92	2187.23
780.10	2043.87
780.28	2131.94
780.46	2273.25
780.64	2213.85
780.82	2004.96
781.00	2133.98
781.18	2084.83
781.36	2136.03
781.54	1976.29
781.72	2224.09
781.90	2060.26
782.08	1920.99
782.26	2148.32
782.44	2115.55
782.62	2324.44
782.80	2166.75
782.98	1906.66
783.16	2107.36
783.34	2133.98
783.52	2265.05
783.70	2260.96
783.88	1865.70
784.06	2123.74
784.24	2154.46
784.42	2099.17
784.60	1871.84
784.78	2041.82
784.96	2109.41
785.14	2201.57
785.32	1996.77
785.50	2033.63
785.68	2301.92
785.86	1974.24
786.04	1798.12
786.22	2129.89
786.40	2054.11
786.58	1931.23
786.76	1857.51
786.94	2113.50
787.12	1873.89
787.30	2121.70
787.48	1978.34
787.66	2185.18
787.84	2303.96
788.02	2353.12
788.20	2037.73
788.38	2138.08
788.56	2359.26
788.74	2103.26
788.92	2004.96
789.10	2172.89
789.28	2338.78
789.46	1873.89
789.64	2451.42
789.82	2076.64
790.00	2209.76
790.17	1988.58
790.35	2088.93
790.53	2287.58
790.71	2324.44
790.89	2363.36
791.07	2045.92
791.25	2277.34
791.43	2045.92
791.61	1949.67
791.79	2123.74
791.97	2138.08
792.15	2068.45
792.33	2144.22
792.51	1986.53
792.69	2078.69
792.86	2277.34
793.04	2047.97
793.22	2172.89
793.40	2164.70
793.58	2133.98
793.76	2009.06
793.94	2381.79
794.12	2224.09
794.30	2123.74
794.48	2080.74
794.66	2162.66
794.84	2205.66
795.01	2066.40
795.19	1945.57
795.37	2187.23
795.55	2236.38
795.73	2328.54
795.91	2002.91
796.09	1996.77
796.27	2093.02
796.45	1894.37
796.62	1984.48
796.80	1988.58
796.98	2070.50
797.16	2209.76
797.34	2004.96
797.52	2037.73
797.70	2017.25
797.88	1992.67
798.06	2144.22
798.23	2559.96
798.41	2019.30
798.59	1996.77
798.77	1841.12
798.95	2138.08
799.13	1890.28
799.31	2230.24
799.48	2074.59
799.66	2107.36
799.84	2000.87
800.02	2230.24
800.20	2084.83
800.38	2648.02
800.56	2154.46
800.73	2183.13
800.91	2013.15
801.09	2308.06
801.27	2045.92
801.45	2099.17
801.63	2115.55
801.80	2240.48
801.98	2136.03
802.16	2000.87
802.34	2037.73
802.52	2095.07
802.70	2121.70
802.87	2127.84
803.05	2043.87
803.23	2111.46
803.41	2172.89
803.59	2123.74
803.77	2056.16
803.94	2084.83
804.12	2021.35
804.30	2142.18
804.48	2060.26
804.66	1853.41
804.83	2506.71
805.01	1966.05
805.19	2111.46
805.37	1892.32
805.55	2203.61
805.72	1970.15
805.90	1964.00
806.08	1966.05
806.26	2174.94
806.44	2242.53
806.61	2070.50
806.79	1925.09
806.97	1880.04
807.15	2125.79
807.32	2060.26
807.50	1994.72
807.68	1978.34
807.86	2160.61
808.04	2043.87
808.21	2078.69
808.39	2195.42
808.57	2074.59
808.75	1904.61
808.92	1920.99
809.10	2115.55
809.28	2213.85
809.46	2193.37
809.63	2021.35
809.81	2115.55
809.99	2346.97
810.17	1984.48
810.35	2025.44
810.52	2011.11
810.70	2103.26
810.88	2127.84
811.05	2209.76
811.23	2156.51
811.41	2363.36
811.59	1976.29
811.76	1863.65
811.94	2140.13
812.12	2164.70
812.30	1968.10
812.47	2093.02
812.65	1943.52
812.83	2306.01
813.01	2142.18
813.18	2058.21
813.36	2236.38
813.54	2344.92
813.71	1859.56
813.89	2009.06
814.07	2220.00
814.25	2164.70
814.42	1851.36
814.60	1945.57
814.78	2156.51
814.95	2328.54
815.13	1984.48
815.31	2107.36
815.49	2273.25
815.66	2252.77
815.84	1984.48
816.02	1953.76
816.19	2166.75
816.37	2035.68
816.55	2000.87
816.72	2021.35
816.90	2095.07
817.08	2017.25
817.25	2297.82
817.43	1908.71
817.61	2154.46
817.78	2168.80
817.96	2062.30
818.14	1964.00
818.32	2045.92
818.49	2078.69
818.67	1894.37
818.85	2236.38
819.02	2197.47
819.20	2222.05
819.38	2017.25
819.55	2109.41
819.73	2170.85
819.90	2402.27
820.08	1839.08
820.26	2039.78
820.43	2394.08
820.61	2254.81
820.79	1998.82
820.96	1888.23
821.14	1945.57
821.32	2082.78
821.49	1945.57
821.67	1943.52
821.85	2084.83
822.02	1927.14
822.20	2021.35
822.37	1914.85
822.55	2158.56
822.73	2392.03
822.90	2025.44
823.08	2023.39
823.26	1920.99
823.43	2103.26
823.61	1927.14
823.78	1957.86
823.96	2133.98
824.14	2314.20
824.31	2205.66
824.49	1914.85
824.67	2230.24
824.84	2064.35
825.02	1980.39
825.19	1847.27
825.37	2346.97
825.55	2136.03
825.72	2263.01
825.90	2187.23
826.07	2076.64
826.25	2351.07
826.43	1804.26
826.60	1970.15
826.78	2148.32
826.95	2238.43
827.13	1939.43
827.30	2154.46
827.48	2099.17
827.66	2144.22
827.83	2050.02
828.01	2027.49
828.18	2000.87
828.36	2084.83
828.53	1916.90
828.71	1939.43
828.89	2185.18
829.06	2185.18
829.24	1929.19
829.41	1937.38
829.59	2062.30
829.76	1988.58
829.94	1935.33
830.11	2029.54
830.29	1996.77
830.47	2197.47
830.64	1996.77
830.82	2080.74
830.99	2056.16
831.17	2107.36
831.34	2199.52
831.52	1918.95
831.69	2037.73
831.87	2197.47
832.04	2107.36
832.22	1935.33
832.40	2045.92
832.57	2119.65
832.75	1814.50
832.92	1888.23
833.10	1972.19
833.27	2312.16
833.45	2004.96
833.62	1896.42
833.80	2211.81
833.97	2246.62
834.15	2242.53
834.32	1957.86
834.50	2000.87
834.67	2373.60
834.85	2037.73
835.02	2041.82
835.20	2172.89
835.37	2387.93
835.55	2142.18
835.72	2138.08
835.90	2015.20
836.07	2164.70
836.25	2158.56
836.42	2015.20
836.60	2074.59
836.77	2222.05
836.95	2197.47
837.12	2123.74
837.30	2160.61
837.47	2043.87
837.65	1947.62
837.82	1914.85
838.00	2093.02
838.17	2054.11
838.34	1943.52
838.52	1978.34
838.69	2318.30
838.87	2213.85
839.04	2007.01
839.22	1863.65
839.39	2107.36
839.57	2142.18
839.74	2072.54
839.92	2029.54
840.09	2000.87
840.26	2299.87
840.44	1923.04
840.61	2045.92
840.79	1972.19
840.96	1898.47
841.14	2076.64
841.31	1986.53
841.49	2052.06
841.66	2230.24
841.83	1959.91
842.01	2168.80
842.18	2150.37
842.36	2129.89
842.53	1925.09
842.71	2193.37
842.88	1998.82
843.05	2019.30
843.23	2074.59
843.40	1980.39
843.58	2328.54
843.75	2191.33
843.92	1808.36
844.10	1986.53
844.27	2101.22
844.45	2295.77
844.62	1935.33
844.80	2095.07
844.97	2039.78
845.14	2215.90
845.32	1925.09
845.49	1949.67
845.66	2111.46
845.84	2007.01
846.01	2080.74
846.19	1959.91
846.36	2365.40
846.53	2355.16
846.71	1949.67
846.88	1939.43
847.06	2072.54
847.23	2131.94
847.40	1916.90
847.58	2103.26
847.75	2271.20
847.92	2500.57
848.10	2015.20
848.27	2140.13
848.45	2127.84
848.62	2228.19
848.79	1822.69
848.97	1964.00
849.14	2050.02
849.31	1986.53
849.49	2076.64
849.66	1804.26
849.83	2033.63
850.01	2443.23
850.18	2037.73
850.35	2088.93
850.53	2342.88
850.70	2189.28
850.87	2133.98
851.05	2029.54
851.22	2297.82
851.39	2523.10
851.57	1863.65
851.74	1961.95
851.91	1978.34
852.09	2009.06
852.26	1961.95
852.43	1886.18
852.61	2039.78
852.78	2099.17
852.95	2256.86
853.13	1929.19
853.30	2301.92
853.47	2215.90
853.65	2205.66
853.82	1953.76
853.99	2144.22
854.16	2199.52
854.34	1781.73
854.51	1787.88
854.68	2117.60
854.86	2113.50
855.03	1902.56
855.20	1705.96
855.38	2062.30
855.55	2160.61
855.72	1634.28
855.89	1716.20
856.07	2301.92
856.24	2068.45
856.41	1767.40
856.59	2009.06
856.76	2119.65
856.93	2303.96
857.10	1800.16
857.28	1896.42
857.45	2088.93
857.62	2220.00
857.79	1892.32
857.97	1730.53
858.14	2107.36
858.31	2076.64
858.48	1806.31
858.66	1920.99
858.83	2332.64
859.00	2066.40
859.17	1861.60
859.35	1875.94
859.52	2127.84
859.69	2156.51
859.86	1857.51
860.04	1748.97
860.21	2093.02
860.38	2293.72
860.55	1867.75
860.73	1951.71
860.90	1857.51
861.07	2271.20
861.24	1920.99
861.42	1890.28
861.59	2109.41
861.76	2222.05
861.93	1687.53
862.10	1796.07
862.28	2203.61
862.45	2066.40
862.62	1712.10
862.79	1923.04
862.96	2115.55
863.14	2279.39
863.31	1931.23
863.48	2127.84
863.65	2088.93
863.83	2256.86
864.00	2054.11
864.17	1660.90
864.34	2371.55
864.51	1998.82
864.68	1791.97
864.86	1949.67
865.03	2170.85
865.20	2109.41
865.37	1998.82
865.54	1839.08
865.72	2119.65
865.89	2093.02
866.06	1820.64
866.23	1961.95
866.40	2090.98
866.57	2389.98
866.75	1982.43
866.92	1791.97
867.09	2107.36
867.26	2193.37
867.43	2037.73
867.60	1761.25
867.78	2187.23
867.95	2279.39
868.12	1923.04
868.29	1677.29
868.46	2377.69
868.63	2287.58
868.81	1855.46
868.98	1849.32
869.15	2168.80
869.32	2400.22
869.49	1869.80
869.66	1837.03
869.83	2140.13
870.00	2213.85
870.18	1935.33
870.35	1988.58
870.52	2125.79
870.69	2369.50
870.86	1943.52
871.03	1923.04
871.20	1992.67
871.37	2189.28
871.55	1806.31
871.72	1757.16
871.89	2105.31
872.06	2328.54
872.23	1951.71
872.40	1824.74
872.57	2412.51
872.74	2222.05
872.91	1751.01
873.09	1806.31
873.26	2342.88
873.43	1984.48
873.60	1898.47
873.77	1964.00
873.94	2375.64
874.11	2109.41
874.28	1912.80
874.45	1757.16
874.62	2265.05
874.79	2318.30
874.97	1877.99
875.14	1880.04
875.31	2160.61
875.48	2086.88
875.65	1775.59
875.82	1984.48
875.99	2054.11
876.16	2179.04
876.33	1763.30
876.50	2025.44
876.67	2582.49
876.84	2224.09
877.01	1929.19
877.18	2068.45
877.35	2127.84
877.53	2068.45
877.70	1882.08
877.87	1806.31
878.04	2156.51
878.21	2191.33
878.38	1845.22
878.55	1918.95
878.72	2172.89
878.89	2377.69
879.06	1974.24
879.23	2025.44
879.40	2189.28
879.57	2238.43
879.74	1802.21
879.91	1988.58
880.08	2074.59
880.25	2166.75
880.42	1834.98
880.59	1834.98
880.76	2035.68
880.93	2174.94
881.10	1843.17
881.27	1890.28
881.44	2068.45
881.61	2400.22
881.78	1734.63
881.95	1996.77
882.12	2107.36
882.29	2148.32
882.46	1877.99
882.63	1890.28
882.80	2222.05
882.97	2246.62
883.14	1918.95
883.31	1820.64
883.48	2267.10
883.65	2334.68
883.82	1771.49
883.99	1996.77
884.16	2533.34
884.33	2209.76
884.50	1869.80
884.67	1841.12
884.84	2367.45
885.01	2027.49
885.18	1896.42
885.35	1794.02
885.52	2426.84
885.69	2205.66
885.86	1974.24
886.03	1728.49
886.20	2545.63
886.37	2029.54
886.54	2084.83
886.71	1718.25
886.87	2465.75
887.04	2234.33
887.21	1888.23
887.38	1777.64
887.55	1968.10
887.72	2105.31
887.89	1939.43
888.06	1689.57
888.23	2144.22
888.40	2402.27
888.57	1849.32
888.74	1880.04
888.91	2152.42
889.08	2043.87
889.25	1884.13
889.42	1703.91
889.58	2220.00
889.75	2439.13
889.92	1867.75
890.09	2123.74
890.26	2969.55
890.43	2070.50
890.60	1972.19
890.77	1746.92
890.94	2017.25
891.11	2099.17
891.28	1755.11
891.44	1853.41
891.61	2162.66
891.78	2084.83
891.95	1851.36
892.12	1873.89
892.29	2039.78
892.46	2277.34
892.63	1998.82
892.80	1771.49
892.96	2301.92
893.13	2205.66
893.30	1990.63
893.47	2088.93
893.64	2471.90
893.81	1830.88
893.98	1824.74
894.15	1794.02
894.31	2021.35
894.48	2142.18
894.65	1908.71
894.82	2185.18
894.99	2240.48
895.16	2105.31
895.33	2103.26
895.49	1939.43
895.66	2064.35
895.83	2172.89
896.00	1716.20
896.17	1834.98
896.34	2133.98
896.50	2303.96
896.67	1742.82
896.84	1808.36
897.01	2248.67
897.18	2045.92
897.35	1847.27
897.51	1855.46
897.68	2191.33
897.85	2457.56
898.02	1800.16
898.19	1771.49
898.36	2027.49
898.52	2478.04
898.69	2133.98
898.86	2099.17
899.03	2045.92
899.20	2195.42
899.36	1855.46
899.53	1716.20
899.70	2007.01
899.87	2154.46
900.04	1767.40
900.20	2066.40
900.37	2072.54
900.54	2119.65
900.71	1853.41
900.88	2058.21
901.04	2084.83
901.21	2168.80
901.38	1890.28
901.55	1755.11
901.72	2004.96
901.88	2080.74
902.05	1812.45
902.22	1871.84
902.39	2258.91
902.55	2103.26
902.72	1861.60
902.89	1886.18
903.06	2029.54
903.23	2029.54
903.39	1892.32
903.56	1882.08
903.73	2320.35
903.90	1920.99
904.06	1986.53
904.23	1927.14
904.40	2250.72
904.57	2185.18
904.73	2013.15
904.90	1959.91
905.07	2201.57
905.24	1937.38
905.40	1755.11
905.57	1880.04
905.74	2324.44
905.91	1867.75
906.07	1961.95
906.24	1943.52
906.41	2088.93
906.57	2281.44
906.74	1886.18
906.91	1933.28
907.08	2172.89
907.24	2246.62
907.41	1992.67
907.58	1798.12
907.75	2076.64
907.91	2158.56
908.08	2115.55
908.25	2019.30
908.41	2205.66
908.58	2389.98
908.75	1834.98
908.91	1914.85
909.08	2156.51
909.25	2176.99
909.42	1964.00
>>>>>End Processed Spectral Data<<<<<
