SpectraSuite Data File
++++++++++++++++++++++++++++++++++++
Date: Fri Feb 07 18:43:57 EST 2020
User: BHM
Dark Spectrum Present: No
Reference Spectrum Present: No
Number of Sampled Component Spectra: 1
Spectrometers: USB4H07074
Integration Time (usec): 1000000 (USB4H07074)
Spectra Averaged: 1 (USB4H07074)
Boxcar Smoothing: 0 (USB4H07074)
Correct for Electrical Dark: No (USB4H07074)
Strobe/Lamp Enabled: No (USB4H07074)
Correct for Detector Non-linearity: No (USB4H07074)
Correct for Stray Light: No (USB4H07074)
Number of Pixels in Processed Spectrum: 3648
>>>>>Begin Processed Spectral Data<<<<<
194.67	1112.05
194.89	1112.05
195.11	1112.05
195.33	1161.20
195.55	1177.58
195.77	2195.42
195.99	2222.05
196.21	1736.68
196.42	1933.28
196.64	2129.89
196.86	2191.33
197.08	1937.38
197.30	1986.53
197.52	1984.48
197.74	2000.87
197.96	1773.54
198.18	1886.18
198.40	2056.16
198.61	2199.52
198.83	2133.98
199.05	1933.28
199.27	2133.98
199.49	2369.50
199.71	2195.42
199.93	1923.04
200.15	2123.74
200.37	2166.75
200.58	1814.50
200.80	2265.05
201.02	2201.57
201.24	2123.74
201.46	2142.18
201.68	2054.11
201.90	2072.54
202.12	2316.25
202.34	2199.52
202.55	2234.33
202.77	2160.61
202.99	1982.43
203.21	2082.78
203.43	2164.70
203.65	2109.41
203.87	2172.89
204.09	2195.42
204.30	2312.16
204.52	2389.98
204.74	2197.47
204.96	1955.81
205.18	2037.73
205.40	2322.40
205.62	2054.11
205.84	2281.44
206.05	2250.72
206.27	2318.30
206.49	2295.77
206.71	2033.63
206.93	2185.18
207.15	2480.09
207.37	2291.68
207.58	2197.47
207.80	1861.60
208.02	2025.44
208.24	2181.09
208.46	1890.28
208.68	1947.62
208.90	2344.92
209.11	2230.24
209.33	1933.28
209.55	2047.97
209.77	2007.01
209.99	2117.60
210.21	2113.50
210.43	1927.14
210.64	2297.82
210.86	2174.94
211.08	1777.64
211.30	2234.33
211.52	2271.20
211.74	2152.42
211.95	1964.00
212.17	2226.14
212.39	2115.55
212.61	2209.76
212.83	1937.38
213.05	1892.32
213.26	2156.51
213.48	2131.94
213.70	1951.71
213.92	1992.67
214.14	2297.82
214.36	2015.20
214.57	1929.19
214.79	2287.58
215.01	2252.77
215.23	2488.28
215.45	2062.30
215.67	2090.98
215.88	2265.05
216.10	2357.21
216.32	1775.59
216.54	1828.84
216.76	2166.75
216.97	2119.65
217.19	1939.43
217.41	1984.48
217.63	2236.38
217.85	2279.39
218.07	1834.98
218.28	2222.05
218.50	2383.84
218.72	2287.58
218.94	1970.15
219.16	2099.17
219.37	2043.87
219.59	2340.83
219.81	1931.23
220.03	1916.90
220.25	2215.90
220.46	2242.53
220.68	2037.73
220.90	1929.19
221.12	2125.79
221.34	2090.98
221.55	1939.43
221.77	1849.32
221.99	2035.68
222.21	2207.71
222.43	2303.96
222.64	1890.28
222.86	2328.54
223.08	2127.84
223.30	2099.17
223.52	2043.87
223.73	2133.98
223.95	2562.01
224.17	1972.19
224.39	1888.23
224.60	2209.76
224.82	2140.13
225.04	1964.00
225.26	1959.91
225.48	2070.50
225.69	2392.03
225.91	1937.38
226.13	2316.25
226.35	2211.81
226.56	2174.94
226.78	1824.74
227.00	1910.75
227.22	2252.77
227.44	2158.56
227.65	1888.23
227.87	2082.78
228.09	2121.70
228.31	2267.10
228.52	1925.09
228.74	1865.70
228.96	2281.44
229.18	2097.12
229.39	2174.94
229.61	1912.80
229.83	2011.11
230.05	2066.40
230.26	2287.58
230.48	2095.07
230.70	2279.39
230.92	2095.07
231.13	2007.01
231.35	1992.67
231.57	2136.03
231.79	2254.81
232.00	1996.77
232.22	1812.45
232.44	2226.14
232.66	2310.11
232.87	2041.82
233.09	2009.06
233.31	2295.77
233.53	2166.75
233.74	2103.26
233.96	2213.85
234.18	2090.98
234.40	2232.29
234.61	1990.63
234.83	1869.80
235.05	2285.53
235.27	2211.81
235.48	1961.95
235.70	2004.96
235.92	2041.82
236.14	2310.11
236.35	2011.11
236.57	2103.26
236.79	2258.91
237.00	2176.99
237.22	2000.87
237.44	2148.32
237.66	2152.42
237.87	2387.93
238.09	1880.04
238.31	1781.73
238.53	2090.98
238.74	2174.94
238.96	1982.43
239.18	1951.71
239.39	2047.97
239.61	2258.91
239.83	2082.78
240.05	1937.38
240.26	2027.49
240.48	2402.27
240.70	2191.33
240.91	2203.61
241.13	2105.31
241.35	1925.09
241.56	1925.09
241.78	1976.29
242.00	2217.95
242.22	2191.33
242.43	2230.24
242.65	2254.81
242.87	2154.46
243.08	2279.39
243.30	1908.71
243.52	2076.64
243.73	2514.91
243.95	2289.63
244.17	2017.25
244.39	1916.90
244.60	2217.95
244.82	2125.79
245.04	1937.38
245.25	1818.60
245.47	2076.64
245.69	2105.31
245.90	1869.80
246.12	1738.73
246.34	2312.16
246.55	2193.37
246.77	2275.29
246.99	2133.98
247.20	2033.63
247.42	2488.28
247.64	1781.73
247.86	1740.77
248.07	2312.16
248.29	2168.80
248.51	1951.71
248.72	2009.06
248.94	2220.00
249.16	2115.55
249.37	1855.46
249.59	2154.46
249.81	2150.37
250.02	2193.37
250.24	2093.02
250.46	2068.45
250.67	2265.05
250.89	2136.03
251.11	1834.98
251.32	2029.54
251.54	2252.77
251.76	2160.61
251.97	1970.15
252.19	2043.87
252.40	2162.66
252.62	2267.10
252.84	2133.98
253.05	2107.36
253.27	2482.14
253.49	2174.94
253.70	2103.26
253.92	2185.18
254.14	2287.58
254.35	2064.35
254.57	1959.91
254.79	1959.91
255.00	2543.58
255.22	2197.47
255.44	2035.68
255.65	2054.11
255.87	2029.54
256.08	2138.08
256.30	1900.52
256.52	1951.71
256.73	2248.67
256.95	2324.44
257.17	1738.73
257.38	2230.24
257.60	2240.48
257.82	2246.62
258.03	1869.80
258.25	1841.12
258.46	2009.06
258.68	2168.80
258.90	1945.57
259.11	1867.75
259.33	2387.93
259.55	2076.64
259.76	2052.06
259.98	1890.28
260.19	1773.54
260.41	2101.22
260.63	1951.71
260.84	1890.28
261.06	2203.61
261.27	2293.72
261.49	1882.08
261.71	2021.35
261.92	2090.98
262.14	2308.06
262.35	1880.04
262.57	1859.56
262.79	2017.25
263.00	2166.75
263.22	1970.15
263.44	1974.24
263.65	2140.13
263.87	2215.90
264.08	1916.90
264.30	2093.02
264.52	2244.57
264.73	2158.56
264.95	1966.05
265.16	2082.78
265.38	2185.18
265.59	2095.07
265.81	2090.98
266.03	1984.48
266.24	2158.56
266.46	2093.02
266.67	2068.45
266.89	2236.38
267.11	2099.17
267.32	2080.74
267.54	2068.45
267.75	1990.63
267.97	2084.83
268.19	2125.79
268.40	1882.08
268.62	1804.26
268.83	2322.40
269.05	2099.17
269.26	2109.41
269.48	2009.06
269.70	2097.12
269.91	2271.20
270.13	2009.06
270.34	2156.51
270.56	2064.35
270.77	2093.02
270.99	1812.45
271.21	2101.22
271.42	2041.82
271.64	2172.89
271.85	2047.97
272.07	2131.94
272.28	2369.50
272.50	2168.80
272.71	2222.05
272.93	2068.45
273.15	2082.78
273.36	2088.93
273.58	1953.76
273.79	2015.20
274.01	2392.03
274.22	2467.80
274.44	1894.37
274.65	1959.91
274.87	2017.25
275.09	2166.75
275.30	1929.19
275.52	2037.73
275.73	2127.84
275.95	2316.25
276.16	2191.33
276.38	2000.87
276.59	2326.49
276.81	2297.82
277.02	2068.45
277.24	1853.41
277.45	2475.99
277.67	2256.86
277.89	1918.95
278.10	2191.33
278.32	2146.27
278.53	2084.83
278.75	1998.82
278.96	2093.02
279.18	2068.45
279.39	2101.22
279.61	1937.38
279.82	2103.26
280.04	2052.06
280.25	2121.70
280.47	1951.71
280.68	1789.92
280.90	2140.13
281.11	1982.43
281.33	1877.99
281.54	1867.75
281.76	2095.07
281.97	1957.86
282.19	2043.87
282.40	2123.74
282.62	2013.15
282.83	2346.97
283.05	1945.57
283.27	2156.51
283.48	2007.01
283.70	2224.09
283.91	2047.97
284.13	1847.27
284.34	2013.15
284.56	2201.57
284.77	1931.23
284.99	2093.02
285.20	2119.65
285.42	2334.68
285.63	2123.74
285.84	2072.54
286.06	2144.22
286.27	1947.62
286.49	1972.19
286.70	1941.47
286.92	2185.18
287.13	2041.82
287.35	2004.96
287.56	2080.74
287.78	2359.26
287.99	1976.29
288.21	1853.41
288.42	2404.32
288.64	2281.44
288.85	2226.14
289.07	2082.78
289.28	2060.26
289.50	2181.09
289.71	2197.47
289.93	1937.38
290.14	1837.03
290.36	2248.67
290.57	1949.67
290.79	2115.55
291.00	2111.46
291.22	2119.65
291.43	2551.77
291.64	2033.63
291.86	2041.82
292.07	2314.20
292.29	2299.87
292.50	2140.13
292.72	1861.60
292.93	2351.07
293.15	2389.98
293.36	2154.46
293.58	2109.41
293.79	2109.41
294.00	2404.32
294.22	1972.19
294.43	2111.46
294.65	2480.09
294.86	2205.66
295.08	2179.04
295.29	2600.92
295.51	2396.12
295.72	2451.42
295.94	2226.14
296.15	1816.55
296.36	2152.42
296.58	2170.85
296.79	2232.29
297.01	2019.30
297.22	2181.09
297.44	2285.53
297.65	2211.81
297.86	2277.34
298.08	2250.72
298.29	2420.70
298.51	2267.10
298.72	2172.89
298.94	2136.03
299.15	2281.44
299.36	2172.89
299.58	1990.63
299.79	2420.70
300.01	2246.62
300.22	2201.57
300.44	1902.56
300.65	2254.81
300.86	2152.42
301.08	2166.75
301.29	2103.26
301.51	2572.25
301.72	2631.64
301.93	2150.37
302.15	2082.78
302.36	2455.51
302.58	2369.50
302.79	2342.88
303.01	2066.40
303.22	2383.84
303.43	2338.78
303.65	2103.26
303.86	2203.61
304.08	2265.05
304.29	2162.66
304.50	2334.68
304.72	2019.30
304.93	2162.66
305.15	2783.19
305.36	2045.92
305.57	2281.44
305.79	2111.46
306.00	2471.90
306.22	2211.81
306.43	2211.81
306.64	2238.43
306.86	2564.06
307.07	2242.53
307.28	2088.93
307.50	2379.74
307.71	2531.29
307.93	2121.70
308.14	2117.60
308.35	2340.83
308.57	2308.06
308.78	2168.80
309.00	2215.90
309.21	2285.53
309.42	2250.72
309.64	2105.31
309.85	1968.10
310.06	2320.35
310.28	2340.83
310.49	2162.66
310.71	1781.73
310.92	2482.14
311.13	2258.91
311.35	2056.16
311.56	2265.05
311.77	2383.84
311.99	2453.47
312.20	2195.42
312.41	2336.73
312.63	2412.51
312.84	2344.92
313.06	2093.02
313.27	2340.83
313.48	2244.57
313.70	2346.97
313.91	2344.92
314.12	2035.68
314.34	2406.36
314.55	2312.16
314.76	2215.90
314.98	2224.09
315.19	2383.84
315.40	2414.56
315.62	2127.84
315.83	2406.36
316.04	2553.82
316.26	2449.37
316.47	2254.81
316.68	2326.49
316.90	2172.89
317.11	2418.65
317.32	2412.51
317.54	2191.33
317.75	2312.16
317.96	2324.44
318.18	2105.31
318.39	2215.90
318.60	2375.64
318.82	2258.91
319.03	2031.58
319.24	2066.40
319.46	2498.52
319.67	2400.22
319.88	2117.60
320.10	2115.55
320.31	2144.22
320.52	2275.29
320.74	1941.47
320.95	1959.91
321.16	2058.21
321.38	2551.77
321.59	2142.18
321.80	1941.47
322.02	2109.41
322.23	2598.87
322.44	2125.79
322.65	2037.73
322.87	2226.14
323.08	2355.16
323.29	2328.54
323.51	2297.82
323.72	2445.27
323.93	2369.50
324.15	2080.74
324.36	2121.70
324.57	2394.08
324.78	2342.88
325.00	2398.17
325.21	2226.14
325.42	2320.35
325.64	2299.87
325.85	2238.43
326.06	1996.77
326.28	2193.37
326.49	2258.91
326.70	2189.28
326.91	2240.48
327.13	2293.72
327.34	2357.21
327.55	2213.85
327.77	2131.94
327.98	2387.93
328.19	2252.77
328.40	2113.50
328.62	2004.96
328.83	2381.79
329.04	2201.57
329.25	2095.07
329.47	2064.35
329.68	2277.34
329.89	2346.97
330.11	2000.87
330.32	2107.36
330.53	2160.61
330.74	2400.22
330.96	2150.37
331.17	2004.96
331.38	2426.84
331.59	2260.96
331.81	2084.83
332.02	2064.35
332.23	2234.33
332.44	2324.44
332.66	2267.10
332.87	1855.46
333.08	2189.28
333.29	2326.49
333.51	2381.79
333.72	2039.78
333.93	2228.19
334.14	2451.42
334.36	2236.38
334.57	2119.65
334.78	2230.24
334.99	2494.43
335.21	2306.01
335.42	2226.14
335.63	2377.69
335.84	2344.92
336.06	2152.42
336.27	2080.74
336.48	2260.96
336.69	2451.42
336.91	2105.31
337.12	2234.33
337.33	2451.42
337.54	2228.19
337.75	2346.97
337.97	1988.58
338.18	2396.12
338.39	2205.66
338.60	2033.63
338.82	2344.92
339.03	2301.92
339.24	2201.57
339.45	2097.12
339.66	2195.42
339.88	2537.43
340.09	2142.18
340.30	2228.19
340.51	2199.52
340.73	2355.16
340.94	2639.83
341.15	2054.11
341.36	2166.75
341.57	2281.44
341.79	2346.97
342.00	2154.46
342.21	2043.87
342.42	1904.61
342.63	2275.29
342.85	2252.77
343.06	2066.40
343.27	2121.70
343.48	2197.47
343.69	2123.74
343.91	2228.19
344.12	2469.85
344.33	2170.85
344.54	2394.08
344.75	1941.47
344.97	2174.94
345.18	2103.26
345.39	2195.42
345.60	2074.59
345.81	2191.33
346.02	2158.56
346.24	2230.24
346.45	2207.71
346.66	2205.66
346.87	2150.37
347.08	1923.04
347.30	2035.68
347.51	2244.57
347.72	2238.43
347.93	2181.09
348.14	2236.38
348.35	2082.78
348.57	2107.36
348.78	1832.93
348.99	2027.49
349.20	2099.17
349.41	2551.77
349.62	2539.48
349.84	2285.53
350.05	2093.02
350.26	2215.90
350.47	2066.40
350.68	2146.27
350.89	2387.93
351.11	2252.77
351.32	2240.48
351.53	2082.78
351.74	2133.98
351.95	2480.09
352.16	2230.24
352.37	2195.42
352.59	2191.33
352.80	2344.92
353.01	2039.78
353.22	2328.54
353.43	2310.11
353.64	2205.66
353.86	1984.48
354.07	2162.66
354.28	2158.56
354.49	2263.01
354.70	2209.76
354.91	2068.45
355.12	2396.12
355.33	2469.85
355.55	2082.78
355.76	2095.07
355.97	2404.32
356.18	2287.58
356.39	2099.17
356.60	2090.98
356.81	2293.72
357.03	2340.83
357.24	2170.85
357.45	2287.58
357.66	2324.44
357.87	2457.56
358.08	2224.09
358.29	2162.66
358.50	2340.83
358.71	2559.96
358.93	2349.02
359.14	2224.09
359.35	2996.18
359.56	2414.56
359.77	2586.58
359.98	2371.55
360.19	2723.80
360.40	2772.95
360.61	2918.36
360.83	2908.12
361.04	3043.28
361.25	3252.17
361.46	3313.61
361.67	3088.34
361.88	3399.63
362.09	3409.87
362.30	3647.43
362.51	4016.07
362.72	4114.37
362.94	4689.85
363.15	4704.18
363.36	4921.27
363.57	4759.48
363.78	4798.39
363.99	5056.43
364.20	4550.59
364.41	4751.29
364.62	4771.77
364.83	4624.31
365.04	4296.64
365.26	4278.21
365.47	4265.92
365.68	4071.36
365.89	3995.59
366.10	3852.23
366.31	4376.51
366.52	3602.38
366.73	3821.51
366.94	3530.70
367.15	3155.92
367.36	2951.12
367.57	2848.72
367.78	2895.83
367.99	2740.18
368.21	2578.39
368.42	2631.64
368.63	2715.61
368.84	2709.46
369.05	2613.21
369.26	2453.47
369.47	2645.98
369.68	2707.41
369.89	2459.61
370.10	2637.78
370.31	3037.14
370.52	2660.31
370.73	2234.33
370.94	2551.77
371.15	2682.84
371.36	2629.59
371.57	2553.82
371.78	2643.93
371.99	2664.41
372.20	3055.57
372.42	2779.09
372.63	2527.19
372.84	2652.12
373.05	2674.65
373.26	2500.57
373.47	2697.17
373.68	2740.18
373.89	2688.98
374.10	2430.94
374.31	2887.64
374.52	2725.85
374.73	2660.31
374.94	2680.79
375.15	2873.30
375.36	2623.45
375.57	2705.37
375.78	2592.73
375.99	2547.67
376.20	2639.83
376.41	2914.26
376.62	2797.53
376.83	2940.88
377.04	2824.15
377.25	3160.02
377.46	2785.24
377.67	3084.24
377.88	3307.47
378.09	3655.62
378.30	3188.69
378.51	3499.98
378.72	3332.05
378.93	3706.82
379.14	3346.38
379.35	3430.35
379.56	3764.17
379.77	4124.61
379.98	3788.74
380.19	3786.69
380.40	3862.47
380.61	3819.46
380.82	3887.04
381.03	3973.06
381.24	4222.91
381.45	3733.45
381.66	3848.13
381.87	3772.36
382.08	3694.54
382.29	3760.07
382.50	3710.92
382.71	3915.72
382.92	3561.42
383.13	3835.85
383.34	3424.20
383.55	3221.45
383.76	3317.71
383.97	3385.29
384.18	3428.30
384.39	3356.62
384.60	3342.28
384.81	3301.33
385.02	3176.40
385.23	3139.54
385.44	3090.38
385.65	3497.93
385.86	3284.94
386.07	2969.55
386.28	3028.95
386.49	2797.53
386.70	2910.16
386.91	2869.20
387.11	3086.29
387.32	2893.78
387.53	2793.43
387.74	3117.01
387.95	3012.56
388.16	2981.84
388.37	3198.93
388.58	3055.57
388.79	2987.99
389.00	3102.67
389.21	2994.13
389.42	2838.48
389.63	2830.29
389.84	3418.06
390.05	2965.46
390.26	2854.87
390.47	2893.78
390.68	3037.14
390.89	2822.10
391.09	3057.62
391.30	2953.17
391.51	3217.36
391.72	2910.16
391.93	3114.96
392.14	3117.01
392.35	2865.11
392.56	3266.51
392.77	2932.69
392.98	2981.84
393.19	3057.62
393.40	3248.08
393.61	3006.42
393.82	3299.28
394.02	3074.00
394.23	3229.65
394.44	3028.95
394.65	3311.57
394.86	3151.82
395.07	3241.93
395.28	3117.01
395.49	3153.87
395.70	3491.79
395.91	3629.00
396.12	3270.61
396.32	3559.37
396.53	3430.35
396.74	3481.55
396.95	3700.68
397.16	4108.23
397.37	3639.24
397.58	4050.88
397.79	3573.71
398.00	3944.39
398.21	4237.25
398.41	4081.60
398.62	4153.28
398.83	4376.51
399.04	5046.20
399.25	4601.79
399.46	4599.74
399.67	4714.42
399.88	4919.22
400.09	4870.07
400.29	5109.68
400.50	5169.07
400.71	5187.50
400.92	5273.52
401.13	5400.49
401.34	5949.35
401.55	5646.25
401.76	6176.67
401.96	6293.41
402.17	6430.62
402.38	6604.70
402.59	6854.55
402.80	6793.11
403.01	7100.31
403.22	7325.58
403.43	7896.97
403.63	7714.70
403.84	8206.21
404.05	8263.55
404.26	8587.13
404.47	8853.37
404.68	9283.44
404.89	9506.67
405.09	9752.43
405.30	10055.53
405.51	10477.41
405.72	11143.00
405.93	11515.73
406.14	11544.40
406.35	12519.23
406.55	12730.17
406.76	12969.79
406.97	13655.86
407.18	14038.83
407.39	14690.08
407.60	15146.78
407.80	15415.06
408.01	16209.67
408.22	16654.08
408.43	17100.54
408.64	17809.14
408.85	18413.29
409.05	19076.83
409.26	19891.92
409.47	20170.44
409.68	20661.96
409.89	21552.82
410.10	22027.95
410.30	22630.05
410.51	23817.88
410.72	24280.72
410.93	24876.68
411.14	25540.22
411.35	26478.19
411.55	26744.42
411.76	27792.98
411.97	28513.87
412.18	29824.57
412.39	29906.49
412.59	30756.39
412.80	31598.11
413.01	32488.98
413.22	33396.23
413.43	33981.95
413.63	34928.11
413.84	35114.47
414.05	35823.07
414.26	36519.38
414.47	37793.22
414.67	38356.41
414.88	39022.00
415.09	39443.88
415.30	40762.77
415.51	41328.01
415.71	42368.38
415.92	42612.09
416.13	43529.58
416.34	43879.78
416.55	44512.60
416.75	45208.91
416.96	45491.53
417.17	46421.31
417.38	47562.03
417.59	48125.22
417.79	47828.26
418.00	49550.60
418.21	49550.60
418.42	50005.25
418.62	50619.64
418.83	51164.40
419.04	51287.28
419.25	52108.52
419.46	52882.65
419.66	53243.09
419.87	54103.24
420.08	54191.30
420.29	53118.17
420.49	55411.89
420.70	55456.95
420.91	55086.26
421.12	55973.03
421.32	56065.19
421.53	56947.87
421.74	57201.82
421.95	56816.80
422.15	57386.13
422.36	57736.34
422.57	57922.70
422.78	57629.84
422.98	59159.67
423.19	59485.30
423.40	58723.46
423.61	59595.89
423.81	60163.18
424.02	59321.46
424.23	60314.73
424.44	59970.67
424.64	59688.05
424.85	59954.29
425.06	60884.06
425.27	60275.82
425.47	61473.88
425.68	60832.86
425.89	61512.79
426.10	61725.78
426.30	61453.40
426.51	60779.62
426.72	61688.91
426.92	61985.87
427.13	61750.35
427.34	61908.05
427.55	62194.76
427.75	62219.34
427.96	62245.96
428.17	62368.84
428.38	62436.42
428.58	61559.89
428.79	62358.60
429.00	62305.35
429.20	62506.05
429.41	62231.63
429.62	61324.38
429.82	61996.11
430.03	61979.73
430.24	62145.61
430.45	62583.88
430.65	63155.26
430.86	63392.82
431.07	62800.96
431.27	62577.73
431.48	63368.25
431.69	62174.28
431.90	62471.24
432.10	62575.69
432.31	62276.68
432.52	62420.04
432.72	62964.80
432.93	63284.28
433.14	62551.11
433.34	63020.09
433.55	61795.41
433.76	62719.04
433.96	62823.49
434.17	62180.43
434.38	63206.46
434.58	63005.76
434.79	62325.83
435.00	62442.57
435.21	62743.62
435.41	63374.39
435.62	62151.76
435.83	62909.50
436.03	61783.12
436.24	63071.29
436.45	62438.47
436.65	62651.46
436.86	62444.62
437.07	62248.01
437.27	62344.26
437.48	63161.40
437.69	62585.92
437.89	62788.67
438.10	62149.71
438.31	62489.67
438.51	62268.49
438.72	62395.46
438.92	62258.25
439.13	61453.40
439.34	61791.31
439.54	62622.79
439.75	62637.12
439.96	60552.29
440.16	60804.19
440.37	61942.86
440.58	61172.83
440.78	60689.51
440.99	59837.55
441.20	61789.27
441.40	61281.37
441.61	60382.31
441.82	61123.68
442.02	60587.11
442.23	60068.97
442.43	60204.14
442.64	61142.11
442.85	60492.90
443.05	60071.02
443.26	60552.29
443.47	59378.81
443.67	60206.19
443.88	60023.92
444.08	59702.38
444.29	58901.63
444.50	59606.13
444.70	58631.30
444.91	59204.73
445.12	58657.92
445.32	58100.87
445.53	58492.04
445.73	58776.70
445.94	57900.17
446.15	57310.36
446.35	58174.60
446.56	58168.46
446.76	57162.90
446.97	57334.93
447.18	56528.03
447.38	56143.02
447.59	57113.75
447.79	56661.15
448.00	56071.34
448.21	56251.56
448.41	55078.07
448.62	55684.27
448.82	55303.35
449.03	54703.29
449.24	54271.17
449.44	54656.19
449.65	54781.12
449.85	55868.59
450.06	54441.15
450.27	53523.66
450.47	53796.04
450.68	53044.44
450.88	53310.67
451.09	52978.90
451.29	52745.44
451.50	51838.18
451.71	51989.73
451.91	52421.86
452.12	52284.64
452.32	51942.63
452.53	51354.86
452.73	51324.14
452.94	51221.75
453.15	50513.15
453.35	50582.78
453.56	50177.28
453.76	49573.13
453.97	49016.08
454.17	49968.39
454.38	49536.27
454.59	49304.85
454.79	48559.39
455.00	49059.09
455.20	49014.04
455.41	48172.32
455.61	47682.86
455.82	48178.46
456.02	48186.66
456.23	47342.89
456.44	47336.75
456.64	46992.69
456.85	47015.22
457.05	46662.97
457.26	47217.97
457.46	47291.69
457.67	45868.36
457.87	46388.54
458.08	46124.35
458.28	46087.49
458.49	45036.88
458.69	45671.75
458.90	45213.01
459.11	44899.67
459.31	45012.31
459.52	44909.91
459.72	43853.15
459.93	44709.21
460.13	44338.52
460.34	44459.35
460.54	44299.61
460.75	43312.49
460.95	43799.91
461.16	43009.39
461.36	43435.37
461.57	43365.74
461.77	43304.30
461.98	42751.35
462.18	43001.20
462.39	42642.81
462.59	42874.23
462.80	42653.05
463.00	41987.46
463.21	42489.21
463.41	41942.40
463.62	41813.38
463.82	41909.63
464.03	41829.76
464.23	41700.74
464.44	41465.22
464.64	41385.35
464.85	41012.62
465.05	41459.08
465.26	41420.17
465.46	40635.80
465.67	41082.25
465.87	40404.38
466.08	40228.25
466.28	41336.20
466.49	40547.73
466.69	40287.64
466.90	40541.59
467.10	40021.41
467.31	39753.12
467.51	40398.23
467.72	40203.67
467.92	40011.17
468.13	40349.08
468.33	39720.35
468.54	39482.79
468.74	40041.88
468.95	39155.11
469.15	39703.97
469.35	39259.56
469.56	39009.71
469.76	39114.16
469.97	39056.81
470.17	39527.84
470.38	39202.22
470.58	39255.46
470.79	39443.88
470.99	39755.17
471.20	39601.57
471.40	39257.51
471.61	39499.17
471.81	38536.63
472.01	39259.56
472.22	39275.94
472.42	39189.93
472.63	39255.46
472.83	39191.98
473.04	38704.56
473.24	39142.83
473.45	39302.57
473.65	39007.66
473.85	38946.22
474.06	38942.13
474.26	39153.07
474.47	39126.44
474.67	38712.75
474.88	38944.17
475.08	38798.77
475.28	39175.59
475.49	39216.55
475.69	38266.30
475.90	38772.14
476.10	38860.21
476.31	39302.57
476.51	38948.27
476.71	39034.28
476.92	38413.75
477.12	39075.24
477.33	38514.10
477.53	38743.47
477.73	38956.46
477.94	38139.32
478.14	38458.81
478.35	38383.03
478.55	38516.15
478.76	38329.78
478.96	37991.87
479.16	38514.10
479.37	38618.55
479.57	38278.58
479.78	38366.65
479.98	37959.10
480.18	38536.63
480.39	38137.27
480.59	38483.38
480.80	38364.60
481.00	38340.02
481.20	37541.32
481.41	38012.35
481.61	38518.20
481.81	37830.08
482.02	37580.23
482.22	38188.47
482.43	37576.13
482.63	37797.31
482.83	37115.34
483.04	38086.07
483.24	37694.91
483.45	37502.40
483.65	37537.22
483.85	36847.05
484.06	37354.95
484.26	37514.69
484.46	37524.93
484.67	36705.74
484.87	36492.76
485.07	36771.28
485.28	37137.87
485.48	36986.32
485.69	36648.40
485.89	36785.61
486.09	36285.91
486.30	36230.62
486.50	36459.99
486.70	36636.11
486.91	36365.78
487.11	35976.67
487.31	36169.18
487.52	36253.14
487.72	36203.99
487.92	35704.29
488.13	36054.49
488.33	35991.00
488.54	35741.15
488.74	35237.35
488.94	35868.12
489.15	35223.01
489.35	35753.44
489.55	35446.24
489.76	35165.67
489.96	35755.49
490.16	35016.17
490.37	34905.58
490.57	34866.67
490.77	34592.24
490.98	34600.43
491.18	34715.12
491.38	34897.39
491.59	34426.35
491.79	34512.37
491.99	34272.76
492.19	34303.48
492.40	34235.89
492.60	33854.97
492.80	33918.46
493.01	33611.26
493.21	34158.07
493.41	33799.68
493.62	34004.47
493.82	33715.71
494.02	33478.15
494.23	33334.79
494.43	33838.59
494.63	33484.29
494.84	33439.23
495.04	33455.62
495.24	33150.47
495.44	32718.35
495.65	32849.42
495.85	33072.65
496.05	33226.24
496.26	33336.84
496.46	32929.29
496.66	32863.75
496.86	32869.90
497.07	33039.88
497.27	32423.44
497.47	32362.00
497.68	32204.31
497.88	32701.96
498.08	32130.58
498.28	32085.53
498.49	32339.47
498.69	31895.07
498.89	31790.62
499.10	32325.14
499.30	32216.60
499.50	31761.95
499.70	31618.59
499.91	31661.60
500.11	31526.43
500.31	31620.64
500.51	31501.86
500.72	31442.46
500.92	31847.96
501.12	31385.12
501.33	31315.49
501.53	31024.68
501.73	31202.85
501.93	30821.93
502.14	30953.00
502.34	31213.09
502.54	31188.52
502.74	30875.18
502.95	30334.51
503.15	30248.50
503.35	30662.19
503.55	30905.90
503.76	30772.78
503.96	30318.13
504.16	31049.25
504.36	30254.64
504.57	30162.48
504.77	29978.17
504.97	30326.32
505.17	30139.96
505.37	29781.56
505.58	29519.42
505.78	30037.56
505.98	30002.74
506.18	29691.45
506.39	29675.07
506.59	29904.44
506.79	29791.80
506.99	29593.15
507.20	29371.97
507.40	29623.87
507.60	29519.42
507.80	29089.35
508.00	29103.68
508.21	29136.45
508.41	29156.93
508.61	28814.92
508.81	28823.11
509.01	28612.17
509.22	29412.93
509.42	28997.19
509.62	28878.41
509.82	28589.64
510.02	29142.60
510.23	28485.20
510.43	28646.99
510.63	28712.52
510.83	28497.49
511.03	28296.78
511.24	28335.70
511.44	28575.31
511.64	28841.54
511.84	28251.73
512.04	28175.95
512.25	28302.93
512.45	28012.12
512.65	28030.55
512.85	27715.16
513.05	27924.05
513.26	27479.64
513.46	27936.34
513.66	27541.08
513.86	27459.16
514.06	27614.81
514.26	27686.49
514.47	27188.83
514.67	27539.04
514.87	27246.18
515.07	27090.53
515.27	26738.28
515.47	27029.09
515.68	26830.44
515.88	26961.51
516.08	26977.89
516.28	26848.87
516.48	26553.96
516.68	26304.11
516.89	26570.35
517.09	26058.35
517.29	25988.72
517.49	26164.85
517.69	26312.30
517.89	26437.23
518.09	25759.35
518.30	25759.35
518.50	25865.85
518.70	25648.76
518.90	25790.07
519.10	25687.67
519.30	25294.46
519.50	25165.44
519.71	25378.43
519.91	25065.09
520.11	25052.80
520.31	25151.10
520.51	25278.08
520.71	24768.13
520.91	24772.23
521.12	24565.39
521.32	24696.46
521.52	24448.65
521.72	24055.44
521.92	24012.43
522.12	24215.18
522.32	24247.95
522.52	23836.31
522.73	23731.86
522.93	23916.18
523.13	23740.05
523.33	23334.56
523.53	23291.55
523.73	23152.29
523.93	23328.41
524.13	23240.35
524.33	24585.86
524.54	22888.10
524.74	22836.90
524.94	22605.48
525.14	22462.12
525.34	22679.21
525.54	22550.18
525.74	22271.66
525.94	22269.61
526.14	22034.10
526.34	21763.76
526.55	21460.66
526.75	21704.37
526.95	21452.47
527.15	21468.86
527.35	21157.57
527.55	20917.95
527.75	21092.03
527.95	20979.39
528.15	20958.91
528.35	20451.02
528.55	20510.41
528.75	20131.53
528.96	20004.56
529.16	19969.74
529.36	19871.44
529.56	19844.82
529.76	19898.06
529.96	19877.58
530.16	19748.56
530.36	19166.94
530.56	19455.70
530.76	19580.63
530.96	18845.41
531.16	19308.25
531.36	19019.49
531.56	19191.52
531.76	18601.70
531.96	18374.38
532.17	18714.34
532.37	18235.11
532.57	18169.58
532.77	18265.83
532.97	17917.68
533.17	18159.34
533.37	17354.49
533.57	17796.85
533.77	17547.00
533.97	17489.65
534.17	17547.00
534.37	17096.44
534.57	17291.00
534.77	17161.98
534.97	16627.46
535.17	16621.31
535.37	16854.78
535.57	16707.33
535.77	16643.84
535.97	16385.80
536.17	16148.23
536.37	16131.85
536.57	16477.96
536.77	16074.51
536.97	15453.97
537.17	15906.57
537.37	15367.96
537.57	15298.33
537.77	15591.19
537.97	15300.37
538.18	15355.67
538.38	14901.02
538.58	15632.15
538.78	15066.91
538.98	15177.50
539.18	14671.65
539.38	14538.53
539.58	14485.28
539.78	14747.42
539.98	14243.62
540.18	14616.35
540.38	14366.50
540.58	14470.95
540.78	13926.19
540.98	13983.53
541.18	13819.69
541.38	13727.53
541.58	13891.37
541.77	13477.68
541.97	13887.28
542.17	13782.83
542.37	13557.55
542.57	13442.87
542.77	13416.24
542.97	13580.08
543.17	12861.24
543.37	13084.47
543.57	13205.30
543.77	13233.97
543.97	12812.09
544.17	12592.96
544.37	12549.95
544.57	12748.61
544.77	12388.16
544.97	12451.65
545.17	12556.10
545.37	12379.97
545.57	12244.81
545.77	12355.40
545.97	12312.39
546.17	12527.42
546.37	11874.12
546.57	11695.95
546.77	12072.78
546.97	11747.15
547.17	11161.43
547.37	11331.41
547.57	11411.28
547.76	11638.61
547.96	11192.15
548.16	11196.25
548.36	10958.68
548.56	10819.42
548.76	10903.39
548.96	10792.80
549.16	10684.25
549.36	10940.25
549.56	10489.70
549.76	10905.43
549.96	10755.93
550.16	10671.97
550.36	10573.66
550.56	10532.70
550.75	10567.52
550.95	10305.38
551.15	10096.49
551.35	10037.09
551.55	9959.27
551.75	10342.24
551.95	9914.22
552.15	9748.33
552.35	9772.91
552.55	9901.93
552.75	9717.61
552.95	9314.16
553.14	9445.23
553.34	9799.53
553.54	9662.32
553.74	9322.35
553.94	9248.63
554.14	9183.09
554.34	9379.70
554.54	8996.73
554.74	9150.32
554.94	9301.87
555.13	9062.26
555.33	8468.35
555.53	8988.53
555.73	8701.82
555.93	8615.80
556.13	9060.21
556.33	8857.46
556.53	8804.22
556.73	8417.15
556.92	8699.77
557.12	8650.62
557.32	8298.37
557.52	8335.23
557.72	8335.23
557.92	8638.33
558.12	8404.86
558.32	8218.50
558.51	8357.76
558.71	8269.70
558.91	8298.37
559.11	8150.92
559.31	8193.92
559.51	7872.39
559.71	7864.20
559.91	7663.50
560.10	7554.96
560.30	7974.79
560.50	7612.30
560.70	7581.58
560.90	7466.89
561.10	7581.58
561.29	7737.23
561.49	7237.52
561.69	7258.00
561.89	7452.56
562.09	7468.94
562.29	7411.60
562.49	6956.95
562.68	7333.78
562.88	7290.77
563.08	7223.19
563.28	6926.23
563.48	7186.32
563.68	7210.90
563.87	6959.00
564.07	6727.58
564.27	6868.89
564.47	6911.89
564.67	6492.06
564.87	6473.63
565.06	6602.65
565.26	6735.77
565.46	6410.14
565.66	6418.33
565.86	6932.37
566.05	6422.43
566.25	6199.20
566.45	6342.56
566.65	6434.72
566.85	6252.45
567.05	5877.67
567.24	6111.14
567.44	6143.91
567.64	6360.99
567.84	6111.14
568.04	5787.56
568.23	6217.63
568.43	6180.77
568.63	5523.37
568.83	5777.32
569.03	5765.03
569.22	6078.37
569.42	5902.25
569.62	5687.21
569.82	5916.58
570.02	5808.04
570.21	5617.58
570.41	5545.90
570.61	5601.19
570.81	5814.18
571.00	5588.91
571.20	5332.91
571.40	5775.27
571.60	5580.71
571.80	5459.88
571.99	5420.97
572.19	5701.54
572.39	5697.45
572.59	5093.30
572.78	5111.73
572.98	5193.65
573.18	5195.70
573.38	5087.15
573.57	5236.66
573.77	5339.05
573.97	5244.85
574.17	4855.73
574.36	4906.93
574.56	5128.11
574.76	4849.59
574.96	4872.12
575.15	5158.83
575.35	4974.52
575.55	4984.76
575.75	4911.03
575.94	4917.17
576.14	4929.46
576.34	5001.14
576.54	4751.29
576.73	4679.61
576.93	4761.53
577.13	4734.90
577.33	4923.32
577.52	4616.12
577.72	4583.35
577.92	4632.51
578.12	4358.08
578.31	4804.53
578.51	5009.33
578.71	4714.42
578.90	4433.85
579.10	4720.57
579.30	4480.96
579.50	4493.24
579.69	4394.94
579.89	4446.14
580.09	4589.50
580.29	4454.33
580.48	4294.59
580.68	4083.65
580.88	4403.13
581.07	4075.46
581.27	4351.93
581.47	4286.40
581.66	4122.56
581.86	4704.18
582.06	4124.61
582.26	4077.51
582.45	4140.99
582.65	4603.83
582.85	4067.27
583.04	3895.24
583.24	4263.87
583.44	4003.78
583.63	3993.54
583.83	3712.97
584.03	4022.21
584.22	4286.40
584.42	3758.02
584.62	3882.95
584.82	4200.38
585.01	4165.57
585.21	3819.46
585.41	3813.32
585.60	4011.97
585.80	3864.52
586.00	3762.12
586.19	3553.23
586.39	3610.57
586.59	3913.67
586.78	3776.45
586.98	3571.66
587.18	3801.03
587.37	4026.31
587.57	3665.86
587.77	3753.93
587.96	3559.37
588.16	3794.89
588.36	3518.41
588.55	3368.91
588.75	4034.50
588.94	3526.60
589.14	3436.49
589.34	3614.66
589.53	3805.13
589.73	3561.42
589.93	3518.41
590.12	3319.76
590.32	3573.71
590.52	3811.27
590.71	3473.36
590.91	3243.98
591.11	3506.12
591.30	3694.54
591.50	3223.50
591.69	3121.10
591.89	3612.62
592.09	3594.19
592.28	3332.05
592.48	3358.67
592.68	3612.62
592.87	3348.43
593.07	3278.80
593.26	3180.50
593.46	3192.78
593.66	3647.43
593.85	3194.83
594.05	3278.80
594.24	3260.37
594.44	3084.24
594.64	3375.05
594.83	2885.59
595.03	3807.17
595.23	3307.47
595.42	3098.58
595.62	3135.44
595.81	3385.29
596.01	2994.13
596.20	3117.01
596.40	2965.46
596.60	3053.52
596.79	3592.14
596.99	3084.24
597.18	2879.44
597.38	3069.91
597.58	3172.30
597.77	2789.33
597.97	2746.33
598.16	3067.86
598.36	3360.72
598.56	2721.75
598.75	3217.36
598.95	3340.24
599.14	3231.69
599.34	3112.91
599.53	2883.54
599.73	3151.82
599.93	3346.38
600.12	3084.24
600.32	3080.14
600.51	3119.06
600.71	2936.79
600.90	2979.79
601.10	2967.51
601.29	3330.00
601.49	3157.97
601.69	2807.77
601.88	2977.75
602.08	3162.06
602.27	3127.25
602.47	2656.22
602.66	2721.75
602.86	3110.86
603.05	3217.36
603.25	2703.32
603.45	2893.78
603.64	3139.54
603.84	2904.02
604.03	2568.15
604.23	2820.05
604.42	3061.71
604.62	3014.61
604.81	2705.37
605.01	3047.38
605.20	3198.93
605.40	2904.02
605.59	2574.30
605.79	2693.08
605.98	2840.53
606.18	3104.72
606.37	2953.17
606.57	2801.62
606.77	2906.07
606.96	2715.61
607.16	2496.47
607.35	2541.53
607.55	2899.92
607.74	2856.92
607.94	2729.94
608.13	2697.17
608.33	2828.24
608.52	2795.48
608.72	2600.92
608.91	2590.68
609.11	2705.37
609.30	2961.36
609.50	2652.12
609.69	2426.84
609.89	2987.99
610.08	2971.60
610.28	2426.84
610.47	2537.43
610.67	2633.69
610.86	2766.81
611.06	2889.68
611.25	2600.92
611.44	2897.88
611.64	2820.05
611.83	2811.86
612.03	2633.69
612.22	2619.35
612.42	2764.76
612.61	2449.37
612.81	2525.15
613.00	2723.80
613.20	2631.64
613.39	2441.18
613.59	2721.75
613.78	2621.40
613.98	3024.85
614.17	2525.15
614.37	2686.94
614.56	2582.49
614.75	2719.70
614.95	2414.56
615.14	2426.84
615.34	2457.56
615.53	3102.67
615.73	2801.62
615.92	2502.62
616.12	2451.42
616.31	2584.54
616.50	2656.22
616.70	2525.15
616.89	2570.20
617.09	2871.25
617.28	2609.11
617.48	2478.04
617.67	2635.74
617.87	2836.44
618.06	2432.99
618.25	2166.75
618.45	2637.78
618.64	2953.17
618.84	2588.63
619.03	2437.08
619.23	2488.28
619.42	2437.08
619.61	2545.63
619.81	2596.82
620.00	2488.28
620.20	2613.21
620.39	2666.46
620.58	2353.12
620.78	2328.54
620.97	2535.39
621.17	2289.63
621.36	2121.70
621.55	2680.79
621.75	2576.34
621.94	2600.92
622.14	2213.85
622.33	2332.64
622.52	2590.68
622.72	2052.06
622.91	2498.52
623.11	2654.17
623.30	2461.66
623.49	2512.86
623.69	2279.39
623.88	2543.58
624.08	2598.87
624.27	2412.51
624.46	2314.20
624.66	2396.12
624.85	2574.30
625.05	2426.84
625.24	2371.55
625.43	2545.63
625.63	2357.21
625.82	2248.67
626.01	2131.94
626.21	2510.81
626.40	2625.50
626.59	2265.05
626.79	2400.22
626.98	2523.10
627.18	2330.59
627.37	2461.66
627.56	2275.29
627.76	2416.60
627.95	2385.88
628.14	2109.41
628.34	2404.32
628.53	2478.04
628.72	2473.95
628.92	2101.22
629.11	2514.91
629.30	2271.20
629.50	2260.96
629.69	2299.87
629.88	2410.46
630.08	2424.80
630.27	2353.12
630.46	2160.61
630.66	2326.49
630.85	2357.21
631.04	2555.86
631.24	2428.89
631.43	2209.76
631.62	2342.88
631.82	2480.09
632.01	2260.96
632.20	2172.89
632.40	3000.27
632.59	2533.34
632.78	2117.60
632.98	2140.13
633.17	2516.95
633.36	2551.77
633.56	2142.18
633.75	2176.99
633.94	2136.03
634.14	2770.90
634.33	2211.81
634.52	2246.62
634.71	2490.33
634.91	2453.47
635.10	2342.88
635.29	2232.29
635.49	2506.71
635.68	2379.74
635.87	2199.52
636.07	2160.61
636.26	2428.89
636.45	2676.70
636.64	2377.69
636.84	2224.09
637.03	2537.43
637.22	2375.64
637.42	2209.76
637.61	2197.47
637.80	2553.82
637.99	2332.64
638.19	2168.80
638.38	2377.69
638.57	2357.21
638.76	2412.51
638.96	2127.84
639.15	2490.33
639.34	2306.01
639.54	2195.42
639.73	2072.54
639.92	2181.09
640.11	2148.32
640.31	2475.99
640.50	2238.43
640.69	2301.92
640.88	2269.15
641.08	2432.99
641.27	2121.70
641.46	2144.22
641.65	1984.48
641.85	2263.01
642.04	2396.12
642.23	2111.46
642.42	2385.88
642.62	2293.72
642.81	1970.15
643.00	2424.80
643.19	2287.58
643.38	2248.67
643.58	1927.14
643.77	2185.18
643.96	2369.50
644.15	2383.84
644.35	2162.66
644.54	2052.06
644.73	2394.08
644.92	2306.01
645.12	2324.44
645.31	1988.58
645.50	2248.67
645.69	2303.96
645.88	2084.83
646.08	2099.17
646.27	2070.50
646.46	2140.13
646.65	2346.97
646.84	2019.30
647.04	2478.04
647.23	2174.94
647.42	2226.14
647.61	2373.60
647.80	2406.36
648.00	2459.61
648.19	2133.98
648.38	2158.56
648.57	2285.53
648.76	2265.05
648.96	2263.01
649.15	2240.48
649.34	2201.57
649.53	2394.08
649.72	2043.87
649.92	2320.35
650.11	2082.78
650.30	2256.86
650.49	1898.47
650.68	2029.54
650.87	2123.74
651.07	2064.35
651.26	2066.40
651.45	2043.87
651.64	2109.41
651.83	2330.59
652.02	2066.40
652.22	1992.67
652.41	2168.80
652.60	2320.35
652.79	1964.00
652.98	2113.50
653.17	2357.21
653.37	2242.53
653.56	2111.46
653.75	2209.76
653.94	2222.05
654.13	2312.16
654.32	2123.74
654.51	2162.66
654.71	2179.04
654.90	2265.05
655.09	2045.92
655.28	2074.59
655.47	2484.19
655.66	2353.12
655.85	2133.98
656.05	2156.51
656.24	2447.32
656.43	2260.96
656.62	2121.70
656.81	2234.33
657.00	2185.18
657.19	2107.36
657.38	1916.90
657.58	2258.91
657.77	2197.47
657.96	2197.47
658.15	2043.87
658.34	2080.74
658.53	2185.18
658.72	2181.09
658.91	2031.58
659.10	2297.82
659.30	2203.61
659.49	2263.01
659.68	2207.71
659.87	2148.32
660.06	2297.82
660.25	2250.72
660.44	2271.20
660.63	1939.43
660.82	2308.06
661.01	2275.29
661.21	2064.35
661.40	2019.30
661.59	2105.31
661.78	2060.26
661.97	2041.82
662.16	2066.40
662.35	2205.66
662.54	2324.44
662.73	2228.19
662.92	2103.26
663.11	2308.06
663.30	2228.19
663.50	2082.78
663.69	2062.30
663.88	2246.62
664.07	2297.82
664.26	2031.58
664.45	2172.89
664.64	2203.61
664.83	1935.33
665.02	2021.35
665.21	2299.87
665.40	2050.02
665.59	2306.01
665.78	2183.13
665.97	2176.99
666.16	2195.42
666.35	2142.18
666.54	1957.86
666.73	2213.85
666.93	2103.26
667.12	2207.71
667.31	2301.92
667.50	2064.35
667.69	2170.85
667.88	2136.03
668.07	2117.60
668.26	2041.82
668.45	2410.46
668.64	2238.43
668.83	2084.83
669.02	2072.54
669.21	1931.23
669.40	2306.01
669.59	2148.32
669.78	2074.59
669.97	2156.51
670.16	2179.04
670.35	2090.98
670.54	2041.82
670.73	2168.80
670.92	2007.01
671.11	2136.03
671.30	2082.78
671.49	2432.99
671.68	2279.39
671.87	2054.11
672.06	2140.13
672.25	2332.64
672.44	2369.50
672.63	1953.76
672.82	2009.06
673.01	2136.03
673.20	2326.49
673.39	2090.98
673.58	1947.62
673.77	1978.34
673.96	1980.39
674.15	2031.58
674.34	2101.22
674.53	2275.29
674.72	2197.47
674.91	2269.15
675.10	2246.62
675.29	2252.77
675.48	1970.15
675.67	1984.48
675.86	2115.55
676.05	2154.46
676.24	2209.76
676.43	2144.22
676.62	2224.09
676.81	2254.81
677.00	2365.40
677.19	1933.28
677.38	1945.57
677.57	2287.58
677.75	2312.16
677.94	2113.50
678.13	1976.29
678.32	2209.76
678.51	2387.93
678.70	1931.23
678.89	2187.23
679.08	1869.80
679.27	2224.09
679.46	2035.68
679.65	2076.64
679.84	1990.63
680.03	2113.50
680.22	2125.79
680.41	2222.05
680.60	2426.84
680.79	2340.83
680.97	1970.15
681.16	2000.87
681.35	2146.27
681.54	2105.31
681.73	1906.66
681.92	2021.35
682.11	2205.66
682.30	2224.09
682.49	2054.11
682.68	1937.38
682.87	2168.80
683.06	2164.70
683.25	2193.37
683.43	2037.73
683.62	2338.78
683.81	2201.57
684.00	2162.66
684.19	2115.55
684.38	2131.94
684.57	2418.65
684.76	2080.74
684.95	2054.11
685.14	2277.34
685.32	2156.51
685.51	1869.80
685.70	2267.10
685.89	2148.32
686.08	2107.36
686.27	1892.32
686.46	1984.48
686.65	2105.31
686.83	2144.22
687.02	2076.64
687.21	1935.33
687.40	2148.32
687.59	2078.69
687.78	2181.09
687.97	1847.27
688.16	2351.07
688.34	2320.35
688.53	1957.86
688.72	2082.78
688.91	2258.91
689.10	2258.91
689.29	2095.07
689.48	1896.42
689.66	2226.14
689.85	2383.84
690.04	2041.82
690.23	2265.05
690.42	2193.37
690.61	2154.46
690.80	2168.80
690.98	2002.91
691.17	2371.55
691.36	2602.97
691.55	2101.22
691.74	2035.68
691.93	1992.67
692.11	2039.78
692.30	1972.19
692.49	2297.82
692.68	2330.59
692.87	2152.42
693.06	1843.17
693.24	2078.69
693.43	2172.89
693.62	2060.26
693.81	1945.57
694.00	1976.29
694.19	2160.61
694.37	2109.41
694.56	1871.84
694.75	2121.70
694.94	2047.97
695.13	1998.82
695.31	1904.61
695.50	1927.14
695.69	2490.33
695.88	2312.16
696.07	2228.19
696.25	2174.94
696.44	2148.32
696.63	2420.70
696.82	2013.15
697.01	1886.18
697.19	2115.55
697.38	2281.44
697.57	1937.38
697.76	2021.35
697.95	2344.92
698.13	2119.65
698.32	1892.32
698.51	2144.22
698.70	2306.01
698.88	1994.72
699.07	1923.04
699.26	2007.01
699.45	2174.94
699.64	2230.24
699.82	1986.53
700.01	2162.66
700.20	1996.77
700.39	2324.44
700.57	2080.74
700.76	2193.37
700.95	2027.49
701.14	2445.27
701.32	1943.52
701.51	2129.89
701.70	2179.04
701.89	2033.63
702.07	2011.11
702.26	2047.97
702.45	2201.57
702.64	2211.81
702.82	2019.30
703.01	2041.82
703.20	2066.40
703.39	2205.66
703.57	2187.23
703.76	2463.71
703.95	2185.18
704.14	2068.45
704.32	1988.58
704.51	2113.50
704.70	2050.02
704.89	2041.82
705.07	2070.50
705.26	2289.63
705.45	1974.24
705.63	2168.80
705.82	2023.39
706.01	1998.82
706.20	1968.10
706.38	2090.98
706.57	1900.52
706.76	1968.10
706.94	2037.73
707.13	2127.84
707.32	2174.94
707.51	1896.42
707.69	2082.78
707.88	2475.99
708.07	1955.81
708.25	1910.75
708.44	2074.59
708.63	1916.90
708.81	1935.33
709.00	2064.35
709.19	2183.13
709.37	1978.34
709.56	2000.87
709.75	2099.17
709.94	2215.90
710.12	2090.98
710.31	2123.74
710.50	2193.37
710.68	2236.38
710.87	2222.05
711.06	2031.58
711.24	2148.32
711.43	2189.28
711.62	2402.27
711.80	1972.19
711.99	2191.33
712.18	1955.81
712.36	2093.02
712.55	2162.66
712.74	2068.45
712.92	2154.46
713.11	2228.19
713.30	1929.19
713.48	2066.40
713.67	1986.53
713.85	2242.53
714.04	2033.63
714.23	2435.03
714.41	1984.48
714.60	2258.91
714.79	2047.97
714.97	2222.05
715.16	2127.84
715.35	2226.14
715.53	1978.34
715.72	2166.75
715.91	2052.06
716.09	2195.42
716.28	2013.15
716.46	2074.59
716.65	2363.36
716.84	2377.69
717.02	1933.28
717.21	2043.87
717.40	2015.20
717.58	2037.73
717.77	2064.35
717.95	2166.75
718.14	2269.15
718.33	2326.49
718.51	2000.87
718.70	1978.34
718.88	2093.02
719.07	2076.64
719.26	1945.57
719.44	2093.02
719.63	2062.30
719.81	2058.21
720.00	2033.63
720.19	2017.25
720.37	2074.59
720.56	2252.77
720.74	2099.17
720.93	2093.02
721.12	2062.30
721.30	2228.19
721.49	1996.77
721.67	2156.51
721.86	2138.08
722.04	2312.16
722.23	1937.38
722.42	2033.63
722.60	2113.50
722.79	2162.66
722.97	2119.65
723.16	2041.82
723.34	2060.26
723.53	2138.08
723.72	2185.18
723.90	2156.51
724.09	1990.63
724.27	2353.12
724.46	2119.65
724.64	2050.02
724.83	2097.12
725.01	2189.28
725.20	1931.23
725.39	2117.60
725.57	2351.07
725.76	2201.57
725.94	1937.38
726.13	1890.28
726.31	1912.80
726.50	2158.56
726.68	2002.91
726.87	2111.46
727.05	2045.92
727.24	2185.18
727.42	2129.89
727.61	2136.03
727.80	1847.27
727.98	2385.88
728.17	1951.71
728.35	2025.44
728.54	2121.70
728.72	2146.27
728.91	2074.59
729.09	1880.04
729.28	2258.91
729.46	2297.82
729.65	2045.92
729.83	2058.21
730.02	2318.30
730.20	2301.92
730.39	2291.68
730.57	2031.58
730.76	1988.58
730.94	2312.16
731.13	2109.41
731.31	1869.80
731.50	1941.47
731.68	2050.02
731.87	2027.49
732.05	2066.40
732.24	2148.32
732.42	2150.37
732.61	1925.09
732.79	2095.07
732.98	2322.40
733.16	2295.77
733.35	1937.38
733.53	2017.25
733.71	2117.60
733.90	2156.51
734.08	2019.30
734.27	2029.54
734.45	2150.37
734.64	2093.02
734.82	2054.11
735.01	1966.05
735.19	2097.12
735.38	2263.01
735.56	2242.53
735.75	2293.72
735.93	2101.22
736.11	2183.13
736.30	2121.70
736.48	1941.47
736.67	2181.09
736.85	2095.07
737.04	2019.30
737.22	2181.09
737.41	2140.13
737.59	1939.43
737.77	2105.31
737.96	1935.33
738.14	2281.44
738.33	2289.63
738.51	2039.78
738.70	2131.94
738.88	1914.85
739.06	2236.38
739.25	2076.64
739.43	2037.73
739.62	2281.44
739.80	2213.85
739.99	2029.54
740.17	2033.63
740.35	2238.43
740.54	2129.89
740.72	1927.14
740.91	2111.46
741.09	2170.85
741.27	2260.96
741.46	2168.80
741.64	2009.06
741.83	2201.57
742.01	2258.91
742.19	2011.11
742.38	2103.26
742.56	2203.61
742.75	2328.54
742.93	2260.96
743.11	2293.72
743.30	2166.75
743.48	2035.68
743.67	2119.65
743.85	2111.46
744.03	2033.63
744.22	2361.31
744.40	2060.26
744.58	2095.07
744.77	2138.08
744.95	2277.34
745.14	1937.38
745.32	1961.95
745.50	2101.22
745.69	2140.13
745.87	1925.09
746.05	2299.87
746.24	2084.83
746.42	1959.91
746.61	1986.53
746.79	2156.51
746.97	2306.01
747.16	2252.77
747.34	2213.85
747.52	2351.07
747.71	2340.83
747.89	2064.35
748.07	1931.23
748.26	2027.49
748.44	2375.64
748.62	2093.02
748.81	2115.55
748.99	2146.27
749.17	2201.57
749.36	2220.00
749.54	1939.43
749.72	2109.41
749.91	1972.19
750.09	2187.23
750.27	1955.81
750.46	1888.23
750.64	2215.90
750.82	2029.54
751.01	1871.84
751.19	2025.44
751.37	2197.47
751.56	2346.97
751.74	1882.08
751.92	2031.58
752.10	2230.24
752.29	2017.25
752.47	2125.79
752.65	2037.73
752.84	2011.11
753.02	2019.30
753.20	2115.55
753.39	2099.17
753.57	2170.85
753.75	2389.98
753.93	2189.28
754.12	1929.19
754.30	2004.96
754.48	2283.49
754.67	1951.71
754.85	1984.48
755.03	2121.70
755.21	2498.52
755.40	2172.89
755.58	1978.34
755.76	2232.29
755.95	2136.03
756.13	1861.60
756.31	2041.82
756.49	2181.09
756.68	2150.37
756.86	2072.54
757.04	2312.16
757.22	2306.01
757.41	2322.40
757.59	2338.78
757.77	2240.48
757.95	2488.28
758.14	2123.74
758.32	2131.94
758.50	2138.08
758.68	2381.79
758.87	2437.08
759.05	2123.74
759.23	2320.35
759.41	2101.22
759.60	2236.38
759.78	2308.06
759.96	2076.64
760.14	2183.13
760.33	1990.63
760.51	2121.70
760.69	2031.58
760.87	2191.33
761.05	2220.00
761.24	2039.78
761.42	2248.67
761.60	2297.82
761.78	2281.44
761.97	2068.45
762.15	2242.53
762.33	2471.90
762.51	2260.96
762.69	2179.04
762.88	2293.72
763.06	2435.03
763.24	2144.22
763.42	2324.44
763.60	2193.37
763.79	1884.13
763.97	2162.66
764.15	1877.99
764.33	2228.19
764.51	2138.08
764.70	2349.02
764.88	2308.06
765.06	2095.07
765.24	2076.64
765.42	2437.08
765.61	2142.18
765.79	2199.52
765.97	2258.91
766.15	2252.77
766.33	2158.56
766.51	2015.20
766.70	2166.75
766.88	2471.90
767.06	2174.94
767.24	2125.79
767.42	2084.83
767.60	2174.94
767.79	2082.78
767.97	2101.22
768.15	2041.82
768.33	2211.81
768.51	2058.21
768.69	2412.51
768.88	2207.71
769.06	2312.16
769.24	2138.08
769.42	2271.20
769.60	2148.32
769.78	2127.84
769.96	1976.29
770.15	2369.50
770.33	2228.19
770.51	2301.92
770.69	2314.20
770.87	2088.93
771.05	2138.08
771.23	2252.77
771.41	2152.42
771.60	1972.19
771.78	2230.24
771.96	2277.34
772.14	2027.49
772.32	2330.59
772.50	2166.75
772.68	2199.52
772.86	2205.66
773.05	2174.94
773.23	2383.84
773.41	2289.63
773.59	2144.22
773.77	2035.68
773.95	2377.69
774.13	2344.92
774.31	1923.04
774.49	2250.72
774.68	2062.30
774.86	2467.80
775.04	2267.10
775.22	2000.87
775.40	1986.53
775.58	2080.74
775.76	2140.13
775.94	2166.75
776.12	2140.13
776.30	2389.98
776.48	2138.08
776.66	2252.77
776.85	2185.18
777.03	2322.40
777.21	2021.35
777.39	2318.30
777.57	2541.53
777.75	2168.80
777.93	2125.79
778.11	2320.35
778.29	2213.85
778.47	2127.84
778.65	2402.27
778.83	2473.95
779.01	2455.51
779.19	2379.74
779.37	2238.43
779.55	2385.88
779.74	2105.31
779.92	2328.54
780.10	2074.59
780.28	2267.10
780.46	2367.45
780.64	2353.12
780.82	2144.22
781.00	2359.26
781.18	2242.53
781.36	2320.35
781.54	2023.39
781.72	2381.79
781.90	2174.94
782.08	2088.93
782.26	2306.01
782.44	2209.76
782.62	2402.27
782.80	2414.56
782.98	2086.88
783.16	2166.75
783.34	2181.09
783.52	2416.60
783.70	2258.91
783.88	1970.15
784.06	2326.49
784.24	2357.21
784.42	2228.19
784.60	1984.48
784.78	2195.42
784.96	2111.46
785.14	2240.48
785.32	2121.70
785.50	2136.03
785.68	2424.80
785.86	2158.56
786.04	1984.48
786.22	2398.17
786.40	2082.78
786.58	2084.83
786.76	2035.68
786.94	2332.64
787.12	2166.75
787.30	2203.61
787.48	2082.78
787.66	2377.69
787.84	2308.06
788.02	2449.37
788.20	2074.59
788.38	2234.33
788.56	2447.32
788.74	2160.61
788.92	2181.09
789.10	2238.43
789.28	2615.26
789.46	2025.44
789.64	2609.11
789.82	2236.38
790.00	2303.96
790.17	2093.02
790.35	2228.19
790.53	2432.99
790.71	2322.40
790.89	2461.66
791.07	2148.32
791.25	2426.84
791.43	2230.24
791.61	2156.51
791.79	2207.71
791.97	2207.71
792.15	2230.24
792.33	2260.96
792.51	2131.94
792.69	2217.95
792.86	2377.69
793.04	2187.23
793.22	2174.94
793.40	2312.16
793.58	2162.66
793.76	2013.15
793.94	2543.58
794.12	2367.45
794.30	2281.44
794.48	2150.37
794.66	2297.82
794.84	2351.07
795.01	2242.53
795.19	2068.45
795.37	2353.12
795.55	2258.91
795.73	2457.56
795.91	2136.03
796.09	2052.06
796.27	2205.66
796.45	2054.11
796.62	2054.11
796.80	2273.25
796.98	2183.13
797.16	2209.76
797.34	2133.98
797.52	2211.81
797.70	2215.90
797.88	2273.25
798.06	2299.87
798.23	2691.03
798.41	2254.81
798.59	2119.65
798.77	1953.76
798.95	2269.15
799.13	2111.46
799.31	2340.83
799.48	2234.33
799.66	2242.53
799.84	2136.03
800.02	2285.53
800.20	2203.61
800.38	2856.92
800.56	2213.85
800.73	2338.78
800.91	2176.99
801.09	2459.61
801.27	2170.85
801.45	2271.20
801.63	2236.38
801.80	2392.03
801.98	2222.05
802.16	2093.02
802.34	2160.61
802.52	2238.43
802.70	2351.07
802.87	2318.30
803.05	2154.46
803.23	2318.30
803.41	2301.92
803.59	2295.77
803.77	2265.05
803.94	2267.10
804.12	2224.09
804.30	2256.86
804.48	2263.01
804.66	1892.32
804.83	2715.61
805.01	2115.55
805.19	2199.52
805.37	1978.34
805.55	2297.82
805.72	2181.09
805.90	2056.16
806.08	2199.52
806.26	2293.72
806.44	2297.82
806.61	2123.74
806.79	2105.31
806.97	2093.02
807.15	2355.16
807.32	2236.38
807.50	2306.01
807.68	2021.35
807.86	2303.96
808.04	2097.12
808.21	2349.02
808.39	2404.32
808.57	2236.38
808.75	2183.13
808.92	2133.98
809.10	2297.82
809.28	2312.16
809.46	2281.44
809.63	2213.85
809.81	2283.49
809.99	2469.85
810.17	2179.04
810.35	2138.08
810.52	2166.75
810.70	2306.01
810.88	2283.49
811.05	2369.50
811.23	2238.43
811.41	2590.68
811.59	2220.00
811.76	1988.58
811.94	2369.50
812.12	2267.10
812.30	2158.56
812.47	2117.60
812.65	2088.93
812.83	2414.56
813.01	2226.14
813.18	2201.57
813.36	2402.27
813.54	2410.46
813.71	2035.68
813.89	2215.90
814.07	2291.68
814.25	2336.73
814.42	1945.57
814.60	1955.81
814.78	2324.44
814.95	2613.21
815.13	2068.45
815.31	2148.32
815.49	2324.44
815.66	2394.08
815.84	2011.11
816.02	2099.17
816.19	2340.83
816.37	2185.18
816.55	2078.69
816.72	2265.05
816.90	2234.33
817.08	2156.51
817.25	2406.36
817.43	1914.85
817.61	2338.78
817.78	2318.30
817.96	2199.52
818.14	2150.37
818.32	2146.27
818.49	2252.77
818.67	2117.60
818.85	2435.03
819.02	2303.96
819.20	2381.79
819.38	1994.72
819.55	2148.32
819.73	2461.66
819.90	2523.10
820.08	1906.66
820.26	2271.20
820.43	2453.47
820.61	2357.21
820.79	2129.89
820.96	1920.99
821.14	2072.54
821.32	2320.35
821.49	2078.69
821.67	2019.30
821.85	2160.61
822.02	2101.22
822.20	2162.66
822.37	2066.40
822.55	2260.96
822.73	2527.19
822.90	2238.43
823.08	2222.05
823.26	2066.40
823.43	2164.70
823.61	2123.74
823.78	2062.30
823.96	2228.19
824.14	2502.62
824.31	2258.91
824.49	2041.82
824.67	2342.88
824.84	2242.53
825.02	2191.33
825.19	1996.77
825.37	2566.10
825.55	2279.39
825.72	2330.59
825.90	2459.61
826.07	2203.61
826.25	2375.64
826.43	1849.32
826.60	2133.98
826.78	2314.20
826.95	2332.64
827.13	2150.37
827.30	2265.05
827.48	2265.05
827.66	2252.77
827.83	2156.51
828.01	2156.51
828.18	2123.74
828.36	2269.15
828.53	2045.92
828.71	2062.30
828.89	2328.54
829.06	2367.45
829.24	1992.67
829.41	2011.11
829.59	2150.37
829.76	2207.71
829.94	2066.40
830.11	2103.26
830.29	2166.75
830.47	2379.74
830.64	2072.54
830.82	2260.96
830.99	2181.09
831.17	2293.72
831.34	2416.60
831.52	2158.56
831.69	2158.56
831.87	2412.51
832.04	2211.81
832.22	2068.45
832.40	2191.33
832.57	2326.49
832.75	2009.06
832.92	1992.67
833.10	2244.57
833.27	2324.44
833.45	2230.24
833.62	1966.05
833.80	2355.16
833.97	2338.78
834.15	2371.55
834.32	2090.98
834.50	2166.75
834.67	2572.25
834.85	2207.71
835.02	2252.77
835.20	2389.98
835.37	2639.83
835.55	2191.33
835.72	2236.38
835.90	2131.94
836.07	2310.11
836.25	2289.63
836.42	2191.33
836.60	2326.49
836.77	2430.94
836.95	2369.50
837.12	2260.96
837.30	2267.10
837.47	2131.94
837.65	1945.57
837.82	2031.58
838.00	2224.09
838.17	2125.79
838.34	2058.21
838.52	2133.98
838.69	2432.99
838.87	2359.26
839.04	2154.46
839.22	1949.67
839.39	2197.47
839.57	2273.25
839.74	2136.03
839.92	2080.74
840.09	2174.94
840.26	2461.66
840.44	2029.54
840.61	2215.90
840.79	2086.88
840.96	2117.60
841.14	2174.94
841.31	2027.49
841.49	2334.68
841.66	2281.44
841.83	2142.18
842.01	2312.16
842.18	2291.68
842.36	2375.64
842.53	2035.68
842.71	2254.81
842.88	2111.46
843.05	2164.70
843.23	2074.59
843.40	2101.22
843.58	2414.56
843.75	2293.72
843.92	2015.20
844.10	2115.55
844.27	2256.86
844.45	2289.63
844.62	2031.58
844.80	2220.00
844.97	2236.38
845.14	2228.19
845.32	2103.26
845.49	1961.95
845.66	2297.82
845.84	2164.70
846.01	2205.66
846.19	2084.83
846.36	2418.65
846.53	2557.91
846.71	2002.91
846.88	2093.02
847.06	2226.14
847.23	2195.42
847.40	2002.91
847.58	2228.19
847.75	2455.51
847.92	2598.87
848.10	2115.55
848.27	2125.79
848.45	2269.15
848.62	2420.70
848.79	1968.10
848.97	2176.99
849.14	2318.30
849.31	2176.99
849.49	2189.28
849.66	1990.63
849.83	2185.18
850.01	2568.15
850.18	2160.61
850.35	2222.05
850.53	2500.57
850.70	2432.99
850.87	2170.85
851.05	2131.94
851.22	2340.83
851.39	2746.33
851.57	2047.97
851.74	2064.35
851.91	2156.51
852.09	2140.13
852.26	2050.02
852.43	1966.05
852.61	2256.86
852.78	2183.13
852.95	2332.64
853.13	2050.02
853.30	2467.80
853.47	2351.07
853.65	2291.68
853.82	2056.16
853.99	2248.67
854.16	2373.60
854.34	2002.91
854.51	1824.74
854.68	2297.82
854.86	2316.25
855.03	1992.67
855.20	2013.15
855.38	2252.77
855.55	2267.10
855.72	1722.34
855.89	1751.01
856.07	2469.85
856.24	2199.52
856.41	1908.71
856.59	2088.93
856.76	2279.39
856.93	2355.16
857.10	1923.04
857.28	2007.01
857.45	2246.62
857.62	2342.88
857.79	1953.76
857.97	1845.22
858.14	2263.01
858.31	2293.72
858.48	1896.42
858.66	2009.06
858.83	2523.10
859.00	2265.05
859.17	2027.49
859.35	1970.15
859.52	2398.17
859.69	2267.10
859.86	2017.25
860.04	1908.71
860.21	2224.09
860.38	2418.65
860.55	1916.90
860.73	2095.07
860.90	1959.91
861.07	2455.51
861.24	2023.39
861.42	1992.67
861.59	2154.46
861.76	2369.50
861.93	1880.04
862.10	1974.24
862.28	2410.46
862.45	2279.39
862.62	1912.80
862.79	2007.01
862.96	2287.58
863.14	2453.47
863.31	2076.64
863.48	2293.72
863.65	2193.37
863.83	2519.00
864.00	2201.57
864.17	1787.88
864.34	2508.76
864.51	2197.47
864.68	1845.22
864.86	2097.12
865.03	2291.68
865.20	2351.07
865.37	2127.84
865.54	1945.57
865.72	2385.88
865.89	2293.72
866.06	1970.15
866.23	2170.85
866.40	2406.36
866.57	2451.42
866.75	2148.32
866.92	1900.52
867.09	2242.53
867.26	2365.40
867.43	2146.27
867.60	1863.65
867.78	2248.67
867.95	2500.57
868.12	2062.30
868.29	1787.88
868.46	2459.61
868.63	2381.79
868.81	2017.25
868.98	1908.71
869.15	2492.38
869.32	2514.91
869.49	1966.05
869.66	2009.06
869.83	2291.68
870.00	2346.97
870.18	1937.38
870.35	2041.82
870.52	2179.04
870.69	2498.52
870.86	2025.44
871.03	1959.91
871.20	2256.86
871.37	2353.12
871.55	2054.11
871.72	1851.36
871.89	2269.15
872.06	2303.96
872.23	1988.58
872.40	1998.82
872.57	2506.71
872.74	2369.50
872.91	1806.31
873.09	1906.66
873.26	2492.38
873.43	2066.40
873.60	2060.26
873.77	2043.87
873.94	2451.42
874.11	2209.76
874.28	1939.43
874.45	1875.94
874.62	2392.03
874.79	2344.92
874.97	2021.35
875.14	1943.52
875.31	2287.58
875.48	2265.05
875.65	1966.05
875.82	2179.04
875.99	2123.74
876.16	2398.17
876.33	1873.89
876.50	2269.15
876.67	2815.96
876.84	2424.80
877.01	2045.92
877.18	2346.97
877.35	2359.26
877.53	2254.81
877.70	1949.67
877.87	1974.24
878.04	2295.77
878.21	2383.84
878.38	1923.04
878.55	2000.87
878.72	2211.81
878.89	2566.10
879.06	2072.54
879.23	2140.13
879.40	2289.63
879.57	2461.66
879.74	1920.99
879.91	2125.79
880.08	2222.05
880.25	2338.78
880.42	1970.15
880.59	1925.09
880.76	2256.86
880.93	2420.70
881.10	1906.66
881.27	2117.60
881.44	2156.51
881.61	2557.91
881.78	1849.32
881.95	2166.75
882.12	2154.46
882.29	2367.45
882.46	2041.82
882.63	2002.91
882.80	2383.84
882.97	2295.77
883.14	2138.08
883.31	2007.01
883.48	2455.51
883.65	2420.70
883.82	1949.67
883.99	2027.49
884.16	2709.46
884.33	2387.93
884.50	2004.96
884.67	1900.52
884.84	2494.43
885.01	2166.75
885.18	1992.67
885.35	1802.21
885.52	2516.95
885.69	2299.87
885.86	2144.22
886.03	1927.14
886.20	2684.89
886.37	2338.78
886.54	2172.89
886.71	1742.82
886.87	2605.02
887.04	2363.36
887.21	2002.91
887.38	1855.46
887.55	2213.85
887.72	2222.05
887.89	2099.17
888.06	1935.33
888.23	2289.63
888.40	2535.39
888.57	1986.53
888.74	1988.58
888.91	2193.37
889.08	2154.46
889.25	1937.38
889.42	1902.56
889.58	2410.46
889.75	2533.34
889.92	1968.10
890.09	2156.51
890.26	3209.17
890.43	2146.27
890.60	2056.16
890.77	1955.81
890.94	2271.20
891.11	2172.89
891.28	1933.28
891.44	2056.16
891.61	2303.96
891.78	2133.98
891.95	2047.97
892.12	2086.88
892.29	2203.61
892.46	2488.28
892.63	2146.27
892.80	1978.34
892.96	2392.03
893.13	2303.96
893.30	2154.46
893.47	2082.78
893.64	2551.77
893.81	2088.93
893.98	1912.80
894.15	2009.06
894.31	2258.91
894.48	2238.43
894.65	1968.10
894.82	2326.49
894.99	2506.71
895.16	2324.44
895.33	2322.40
895.49	2052.06
895.66	2127.84
895.83	2369.50
896.00	1718.25
896.17	1961.95
896.34	2242.53
896.50	2398.17
896.67	1908.71
896.84	1914.85
897.01	2330.59
897.18	2176.99
897.35	1957.86
897.51	1910.75
897.68	2338.78
897.85	2615.26
898.02	1871.84
898.19	1880.04
898.36	2236.38
898.52	2564.06
898.69	2303.96
898.86	2250.72
899.03	2097.12
899.20	2344.92
899.36	1839.08
899.53	1900.52
899.70	2174.94
899.87	2254.81
900.04	1882.08
900.20	2303.96
900.37	2123.74
900.54	2267.10
900.71	1943.52
900.88	2310.11
901.04	2234.33
901.21	2324.44
901.38	1918.95
901.55	1988.58
901.72	2158.56
901.88	2205.66
902.05	2023.39
902.22	1964.00
902.39	2340.83
902.55	2265.05
902.72	1996.77
902.89	1894.37
903.06	2201.57
903.23	2236.38
903.39	1992.67
903.56	1914.85
903.73	2447.32
903.90	2050.02
904.06	2101.22
904.23	1955.81
904.40	2375.64
904.57	2385.88
904.73	2101.22
904.90	2144.22
905.07	2279.39
905.24	2058.21
905.40	1849.32
905.57	1980.39
905.74	2426.84
905.91	2002.91
906.07	2035.68
906.24	2041.82
906.41	2308.06
906.57	2453.47
906.74	1998.82
906.91	2076.64
907.08	2301.92
907.24	2346.97
907.41	2011.11
907.58	1929.19
907.75	2297.82
907.91	2320.35
908.08	2176.99
908.25	2189.28
908.41	2256.86
908.58	2519.00
908.75	1925.09
908.91	2013.15
909.08	2332.64
909.25	2281.44
909.42	2105.31
>>>>>End Processed Spectral Data<<<<<
