SpectraSuite Data File
++++++++++++++++++++++++++++++++++++
Date: Fri Feb 07 19:02:24 EST 2020
User: BHM
Dark Spectrum Present: No
Reference Spectrum Present: No
Number of Sampled Component Spectra: 1
Spectrometers: USB4H07074
Integration Time (usec): 1000000 (USB4H07074)
Spectra Averaged: 1 (USB4H07074)
Boxcar Smoothing: 0 (USB4H07074)
Correct for Electrical Dark: No (USB4H07074)
Strobe/Lamp Enabled: No (USB4H07074)
Correct for Detector Non-linearity: No (USB4H07074)
Correct for Stray Light: No (USB4H07074)
Number of Pixels in Processed Spectrum: 3648
>>>>>Begin Processed Spectral Data<<<<<
194.67	1320.94
194.89	1320.94
195.11	1320.94
195.33	1273.84
195.55	1265.64
195.77	2361.31
195.99	2435.03
196.21	1871.84
196.42	2078.69
196.64	2353.12
196.86	2246.62
197.08	2062.30
197.30	2181.09
197.52	2113.50
197.74	2068.45
197.96	1863.65
198.18	2060.26
198.40	2332.64
198.61	2432.99
198.83	2297.82
199.05	2050.02
199.27	2226.14
199.49	2494.43
199.71	2355.16
199.93	2105.31
200.15	2424.80
200.37	2340.83
200.58	2011.11
200.80	2449.37
201.02	2525.15
201.24	2312.16
201.46	2363.36
201.68	2226.14
201.90	2195.42
202.12	2613.21
202.34	2349.02
202.55	2469.85
202.77	2326.49
202.99	2297.82
203.21	2248.67
203.43	2453.47
203.65	2355.16
203.87	2297.82
204.09	2375.64
204.30	2607.06
204.52	2691.03
204.74	2357.21
204.96	2254.81
205.18	2267.10
205.40	2449.37
205.62	2146.27
205.84	2510.81
206.05	2353.12
206.27	2467.80
206.49	2418.65
206.71	2279.39
206.93	2205.66
207.15	2543.58
207.37	2574.30
207.58	2359.26
207.80	1966.05
208.02	2242.53
208.24	2328.54
208.46	2117.60
208.68	2166.75
208.90	2637.78
209.11	2299.87
209.33	2060.26
209.55	2242.53
209.77	2228.19
209.99	2308.06
210.21	2215.90
210.43	2246.62
210.64	2463.71
210.86	2404.32
211.08	2084.83
211.30	2465.75
211.52	2396.12
211.74	2430.94
211.95	2191.33
212.17	2426.84
212.39	2387.93
212.61	2619.35
212.83	2121.70
213.05	2093.02
213.26	2398.17
213.48	2295.77
213.70	2133.98
213.92	2211.81
214.14	2459.61
214.36	2170.85
214.57	2054.11
214.79	2473.95
215.01	2504.67
215.23	2547.67
215.45	2256.86
215.67	2093.02
215.88	2523.10
216.10	2639.83
216.32	2033.63
216.54	2113.50
216.76	2279.39
216.97	2328.54
217.19	2095.07
217.41	2209.76
217.63	2496.47
217.85	2512.86
218.07	2054.11
218.28	2539.48
218.50	2510.81
218.72	2449.37
218.94	2234.33
219.16	2344.92
219.37	2328.54
219.59	2555.86
219.81	2023.39
220.03	2129.89
220.25	2445.27
220.46	2705.37
220.68	2054.11
220.90	2093.02
221.12	2293.72
221.34	2267.10
221.55	2174.94
221.77	1951.71
221.99	2142.18
222.21	2451.42
222.43	2525.15
222.64	1961.95
222.86	2693.08
223.08	2299.87
223.30	2248.67
223.52	2248.67
223.73	2392.03
223.95	2762.71
224.17	2244.57
224.39	2084.83
224.60	2328.54
224.82	2328.54
225.04	2142.18
225.26	2072.54
225.48	2220.00
225.69	2527.19
225.91	2107.36
226.13	2529.24
226.35	2492.38
226.56	2385.88
226.78	2025.44
227.00	2117.60
227.22	2488.28
227.44	2482.14
227.65	2074.59
227.87	2242.53
228.09	2367.45
228.31	2426.84
228.52	2080.74
228.74	2154.46
228.96	2453.47
229.18	2318.30
229.39	2295.77
229.61	2011.11
229.83	2199.52
230.05	2275.29
230.26	2615.26
230.48	2351.07
230.70	2406.36
230.92	2226.14
231.13	2299.87
231.35	2244.57
231.57	2207.71
231.79	2574.30
232.00	2093.02
232.22	2015.20
232.44	2359.26
232.66	2484.19
232.87	2273.25
233.09	2203.61
233.31	2516.95
233.53	2363.36
233.74	2318.30
233.96	2494.43
234.18	2340.83
234.40	2432.99
234.61	2152.42
234.83	2109.41
235.05	2437.08
235.27	2394.08
235.48	2078.69
235.70	2195.42
235.92	2367.45
236.14	2424.80
236.35	2148.32
236.57	2355.16
236.79	2500.57
237.00	2320.35
237.22	2127.84
237.44	2389.98
237.66	2287.58
237.87	2547.67
238.09	2072.54
238.31	1970.15
238.53	2308.06
238.74	2475.99
238.96	2133.98
239.18	2119.65
239.39	2269.15
239.61	2449.37
239.83	2154.46
240.05	2217.95
240.26	2160.61
240.48	2449.37
240.70	2346.97
240.91	2385.88
241.13	2299.87
241.35	2107.36
241.56	2183.13
241.78	2144.22
242.00	2498.52
242.22	2469.85
242.43	2381.79
242.65	2357.21
242.87	2387.93
243.08	2506.71
243.30	2234.33
243.52	2273.25
243.73	2805.72
243.95	2600.92
244.17	2158.56
244.39	2066.40
244.60	2367.45
244.82	2428.89
245.04	2031.58
245.25	1923.04
245.47	2279.39
245.69	2365.40
245.90	2107.36
246.12	1941.47
246.34	2514.91
246.55	2412.51
246.77	2465.75
246.99	2336.73
247.20	2260.96
247.42	2617.30
247.64	2033.63
247.86	1853.41
248.07	2637.78
248.29	2408.41
248.51	2076.64
248.72	2281.44
248.94	2480.09
249.16	2357.21
249.37	2019.30
249.59	2342.88
249.81	2283.49
250.02	2330.59
250.24	2381.79
250.46	2258.91
250.67	2441.18
250.89	2328.54
251.11	2066.40
251.32	2217.95
251.54	2463.71
251.76	2369.50
251.97	2035.68
252.19	2230.24
252.40	2277.34
252.62	2508.76
252.84	2258.91
253.05	2314.20
253.27	2699.22
253.49	2377.69
253.70	2271.20
253.92	2607.06
254.14	2533.34
254.35	2336.73
254.57	2127.84
254.79	2101.22
255.00	2801.62
255.22	2459.61
255.44	2254.81
255.65	2318.30
255.87	2285.53
256.08	2402.27
256.30	1996.77
256.52	2222.05
256.73	2420.70
256.95	2473.95
257.17	1931.23
257.38	2418.65
257.60	2381.79
257.82	2340.83
258.03	2105.31
258.25	2101.22
258.46	2246.62
258.68	2396.12
258.90	2068.45
259.11	2017.25
259.33	2613.21
259.55	2308.06
259.76	2201.57
259.98	2099.17
260.19	2052.06
260.41	2330.59
260.63	2164.70
260.84	2105.31
261.06	2375.64
261.27	2584.54
261.49	2236.38
261.71	2271.20
261.92	2203.61
262.14	2445.27
262.35	2099.17
262.57	1941.47
262.79	2283.49
263.00	2392.03
263.22	2111.46
263.44	2205.66
263.65	2336.73
263.87	2338.78
264.08	2211.81
264.30	2205.66
264.52	2303.96
264.73	2566.10
264.95	2052.06
265.16	2291.68
265.38	2361.31
265.59	2287.58
265.81	2387.93
266.03	2138.08
266.24	2375.64
266.46	2328.54
266.67	2318.30
266.89	2387.93
267.11	2320.35
267.32	2306.01
267.54	2215.90
267.75	2252.77
267.97	2183.13
268.19	2359.26
268.40	2027.49
268.62	2035.68
268.83	2557.91
269.05	2279.39
269.26	2394.08
269.48	2289.63
269.70	2285.53
269.91	2596.82
270.13	2226.14
270.34	2220.00
270.56	2244.57
270.77	2316.25
270.99	1982.43
271.21	2314.20
271.42	2297.82
271.64	2449.37
271.85	2164.70
272.07	2314.20
272.28	2545.63
272.50	2535.39
272.71	2461.66
272.93	2263.01
273.15	2312.16
273.36	2334.68
273.58	2150.37
273.79	2152.42
274.01	2633.69
274.22	2705.37
274.44	2109.41
274.65	2230.24
274.87	2019.30
275.09	2338.78
275.30	2002.91
275.52	2160.61
275.73	2389.98
275.95	2486.23
276.16	2453.47
276.38	2224.09
276.59	2459.61
276.81	2568.15
277.02	2197.47
277.24	2009.06
277.45	2686.94
277.67	2324.44
277.89	2076.64
278.10	2459.61
278.32	2320.35
278.53	2312.16
278.75	2127.84
278.96	2168.80
279.18	2349.02
279.39	2285.53
279.61	2142.18
279.82	2361.31
280.04	2248.67
280.25	2303.96
280.47	2095.07
280.68	2103.26
280.90	2342.88
281.11	2256.86
281.33	2099.17
281.54	2140.13
281.76	2267.10
281.97	2129.89
282.19	2131.94
282.40	2338.78
282.62	2160.61
282.83	2596.82
283.05	1982.43
283.27	2338.78
283.48	2189.28
283.70	2385.88
283.91	2301.92
284.13	2101.22
284.34	2250.72
284.56	2381.79
284.77	2146.27
284.99	2224.09
285.20	2273.25
285.42	2432.99
285.63	2336.73
285.84	2363.36
286.06	2357.21
286.27	2107.36
286.49	2146.27
286.70	2170.85
286.92	2318.30
287.13	2265.05
287.35	2133.98
287.56	2271.20
287.78	2662.36
287.99	2129.89
288.21	1951.71
288.42	2682.84
288.64	2463.71
288.85	2482.14
289.07	2318.30
289.28	2215.90
289.50	2277.34
289.71	2373.60
289.93	2123.74
290.14	2039.78
290.36	2478.04
290.57	2213.85
290.79	2291.68
291.00	2244.57
291.22	2363.36
291.43	2785.24
291.64	2207.71
291.86	2195.42
292.07	2482.14
292.29	2482.14
292.50	2291.68
292.72	2136.03
292.93	2658.26
293.15	2631.64
293.36	2293.72
293.58	2199.52
293.79	2287.58
294.00	2656.22
294.22	2121.70
294.43	2271.20
294.65	2803.67
294.86	2492.38
295.08	2375.64
295.29	2873.30
295.51	2619.35
295.72	2715.61
295.94	2338.78
296.15	1955.81
296.36	2398.17
296.58	2408.41
296.79	2414.56
297.01	2265.05
297.22	2396.12
297.44	2553.82
297.65	2437.08
297.86	2500.57
298.08	2396.12
298.29	2682.84
298.51	2404.32
298.72	2273.25
298.94	2303.96
299.15	2490.33
299.36	2375.64
299.58	2211.81
299.79	2623.45
300.01	2519.00
300.22	2430.94
300.44	2133.98
300.65	2514.91
300.86	2297.82
301.08	2267.10
301.29	2199.52
301.51	2764.76
301.72	2920.40
301.93	2404.32
302.15	2267.10
302.36	2660.31
302.58	2607.06
302.79	2500.57
303.01	2318.30
303.22	2457.56
303.43	2650.07
303.65	2322.40
303.86	2355.16
304.08	2465.75
304.29	2527.19
304.50	2519.00
304.72	2176.99
304.93	2461.66
305.15	2904.02
305.36	2252.77
305.57	2451.42
305.79	2283.49
306.00	2576.34
306.22	2344.92
306.43	2355.16
306.64	2453.47
306.86	2813.91
307.07	2514.91
307.28	2353.12
307.50	2484.19
307.71	2713.56
307.93	2248.67
308.14	2334.68
308.35	2514.91
308.57	2539.48
308.78	2453.47
309.00	2338.78
309.21	2502.62
309.42	2519.00
309.64	2285.53
309.85	2189.28
310.06	2459.61
310.28	2576.34
310.49	2291.68
310.71	1980.39
310.92	2652.12
311.13	2492.38
311.35	2330.59
311.56	2566.10
311.77	2590.68
311.99	2643.93
312.20	2320.35
312.41	2572.25
312.63	2510.81
312.84	2547.67
313.06	2236.38
313.27	2535.39
313.48	2449.37
313.70	2566.10
313.91	2426.84
314.12	2117.60
314.34	2734.04
314.55	2471.90
314.76	2537.43
314.98	2486.23
315.19	2467.80
315.40	2705.37
315.62	2344.92
315.83	2568.15
316.04	2760.66
316.26	2617.30
316.47	2461.66
316.68	2449.37
316.90	2445.27
317.11	2553.82
317.32	2551.77
317.54	2482.14
317.75	2459.61
317.96	2527.19
318.18	2176.99
318.39	2383.84
318.60	2492.38
318.82	2316.25
319.03	2308.06
319.24	2236.38
319.46	2629.59
319.67	2598.87
319.88	2183.13
320.10	2205.66
320.31	2367.45
320.52	2473.95
320.74	2189.28
320.95	2097.12
321.16	2150.37
321.38	2725.85
321.59	2359.26
321.80	2133.98
322.02	2330.59
322.23	2942.93
322.44	2326.49
322.65	2230.24
322.87	2410.46
323.08	2488.28
323.29	2455.51
323.51	2639.83
323.72	2670.55
323.93	2508.76
324.15	2318.30
324.36	2385.88
324.57	2621.40
324.78	2533.34
325.00	2627.54
325.21	2369.50
325.42	2521.05
325.64	2482.14
325.85	2330.59
326.06	2170.85
326.28	2367.45
326.49	2379.74
326.70	2359.26
326.91	2326.49
327.13	2514.91
327.34	2574.30
327.55	2547.67
327.77	2162.66
327.98	2488.28
328.19	2537.43
328.40	2392.03
328.62	2189.28
328.83	2586.58
329.04	2387.93
329.25	2306.01
329.47	2236.38
329.68	2361.31
329.89	2535.39
330.11	2240.48
330.32	2314.20
330.53	2314.20
330.74	2658.26
330.96	2408.41
331.17	2193.37
331.38	2707.41
331.59	2420.70
331.81	2275.29
332.02	2365.40
332.23	2430.94
332.44	2496.47
332.66	2541.53
332.87	2074.59
333.08	2416.60
333.29	2551.77
333.51	2705.37
333.72	2215.90
333.93	2330.59
334.14	2750.42
334.36	2576.34
334.57	2324.44
334.78	2473.95
334.99	2738.13
335.21	2543.58
335.42	2387.93
335.63	2621.40
335.84	2525.15
336.06	2363.36
336.27	2299.87
336.48	2342.88
336.69	2725.85
336.91	2334.68
337.12	2424.80
337.33	2478.04
337.54	2332.64
337.75	2723.80
337.97	2215.90
338.18	2562.01
338.39	2330.59
338.60	2187.23
338.82	2572.25
339.03	2432.99
339.24	2461.66
339.45	2228.19
339.66	2254.81
339.88	2813.91
340.09	2346.97
340.30	2291.68
340.51	2457.56
340.73	2506.71
340.94	2775.00
341.15	2310.11
341.36	2281.44
341.57	2363.36
341.79	2592.73
342.00	2316.25
342.21	2291.68
342.42	2109.41
342.63	2461.66
342.85	2432.99
343.06	2342.88
343.27	2324.44
343.48	2400.22
343.69	2291.68
343.91	2420.70
344.12	2721.75
344.33	2291.68
344.54	2705.37
344.75	2207.71
344.97	2439.13
345.18	2295.77
345.39	2473.95
345.60	2220.00
345.81	2379.74
346.02	2351.07
346.24	2598.87
346.45	2353.12
346.66	2414.56
346.87	2412.51
347.08	2015.20
347.30	2183.13
347.51	2392.03
347.72	2461.66
347.93	2338.78
348.14	2432.99
348.35	2349.02
348.57	2355.16
348.78	1910.75
348.99	2256.86
349.20	2230.24
349.41	2707.41
349.62	2795.48
349.84	2482.14
350.05	2392.03
350.26	2308.06
350.47	2328.54
350.68	2381.79
350.89	2498.52
351.11	2355.16
351.32	2377.69
351.53	2301.92
351.74	2410.46
351.95	2734.04
352.16	2424.80
352.37	2355.16
352.59	2357.21
352.80	2580.44
353.01	2226.14
353.22	2496.47
353.43	2541.53
353.64	2441.18
353.86	2258.91
354.07	2443.23
354.28	2240.48
354.49	2406.36
354.70	2351.07
354.91	2131.94
355.12	2535.39
355.33	2576.34
355.55	2138.08
355.76	2349.02
355.97	2523.10
356.18	2527.19
356.39	2389.98
356.60	2205.66
356.81	2402.27
357.03	2555.86
357.24	2320.35
357.45	2580.44
357.66	2486.23
357.87	2607.06
358.08	2265.05
358.29	2342.88
358.50	2557.91
358.71	2645.98
358.93	2502.62
359.14	2330.59
359.35	3362.76
359.56	2519.00
359.77	2609.11
359.98	2457.56
360.19	2797.53
360.40	2867.16
360.61	2969.55
360.83	2883.54
361.04	2963.41
361.25	3229.65
361.46	3188.69
361.67	2867.16
361.88	3338.19
362.09	3348.43
362.30	3504.07
362.51	3831.75
362.72	3868.61
362.94	4364.22
363.15	4480.96
363.36	4669.37
363.57	4478.91
363.78	4620.22
363.99	4757.43
364.20	4302.78
364.41	4540.35
364.62	4669.37
364.83	4409.28
365.04	4079.55
365.26	4298.69
365.47	4048.83
365.68	4067.27
365.89	3925.96
366.10	3934.15
366.31	4253.63
366.52	3706.82
366.73	3790.79
366.94	3678.15
367.15	3317.71
367.36	3055.57
367.57	3002.32
367.78	2969.55
367.99	2920.40
368.21	2625.50
368.42	2789.33
368.63	2830.29
368.84	3043.28
369.05	2697.17
369.26	2672.60
369.47	2738.13
369.68	2926.55
369.89	2486.23
370.10	2822.10
370.31	3170.26
370.52	2897.88
370.73	2500.57
370.94	2775.00
371.15	2861.01
371.36	2820.05
371.57	2688.98
371.78	2854.87
371.99	2750.42
372.20	3254.22
372.42	3090.38
372.63	2803.67
372.84	2766.81
373.05	2830.29
373.26	2660.31
373.47	2846.68
373.68	2807.77
373.89	2818.00
374.10	2519.00
374.31	3055.57
374.52	2914.26
374.73	2809.81
374.94	2947.03
375.15	3082.19
375.36	2756.57
375.57	2916.31
375.78	2818.00
375.99	2869.20
376.20	2877.40
376.41	3112.91
376.62	3035.09
376.83	3178.45
377.04	3061.71
377.25	3551.18
377.46	3254.22
377.67	3434.44
377.88	3706.82
378.09	4095.94
378.30	3612.62
378.51	3903.43
378.72	3825.61
378.93	4259.78
379.14	3839.94
379.35	3887.04
379.56	4288.45
379.77	4673.46
379.98	4229.06
380.19	4640.70
380.40	4222.91
380.61	4497.34
380.82	4341.69
381.03	4515.77
381.24	4566.97
381.45	4288.45
381.66	4333.50
381.87	4227.01
382.08	4192.19
382.29	4149.18
382.50	3923.91
382.71	4341.69
382.92	3903.43
383.13	4138.94
383.34	3780.55
383.55	3426.25
383.76	3657.67
383.97	3686.34
384.18	3493.83
384.39	3674.06
384.60	3637.19
384.81	3430.35
385.02	3483.59
385.23	3356.62
385.44	3348.43
385.65	3866.56
385.86	3471.31
386.07	3219.41
386.28	3323.85
386.49	2881.49
386.70	3155.92
386.91	3078.10
387.11	3358.67
387.32	3172.30
387.53	3102.67
387.74	3192.78
387.95	3274.70
388.16	3125.20
388.37	3467.21
388.58	3268.56
388.79	3248.08
389.00	3334.09
389.21	3182.54
389.42	3016.66
389.63	2947.03
389.84	3370.96
390.05	3239.89
390.26	3086.29
390.47	3065.81
390.68	3196.88
390.89	3008.47
391.09	3256.27
391.30	3090.38
391.51	3467.21
391.72	3045.33
391.93	3477.45
392.14	3178.45
392.35	3117.01
392.56	3508.17
392.77	3145.68
392.98	3147.73
393.19	3162.06
393.40	3336.14
393.61	3137.49
393.82	3534.79
394.02	3485.64
394.23	3413.96
394.44	3225.55
394.65	3547.08
394.86	3280.85
395.07	3330.00
395.28	3205.07
395.49	3192.78
395.70	3680.20
395.91	3723.21
396.12	3428.30
396.32	3688.39
396.53	3534.79
396.74	3696.58
396.95	3766.21
397.16	4233.15
397.37	3729.35
397.58	4104.13
397.79	3571.66
398.00	3997.64
398.21	4181.95
398.41	4186.05
398.62	4130.75
398.83	4200.38
399.04	4814.77
399.25	4444.09
399.46	4300.73
399.67	4372.41
399.88	4786.10
400.09	4575.16
400.29	4798.39
400.50	4730.81
400.71	4485.05
400.92	4982.71
401.13	4933.56
401.34	5275.57
401.55	5103.54
401.76	5416.88
401.96	5324.72
402.17	5697.45
402.38	5711.78
402.59	5705.64
402.80	5633.96
403.01	6037.41
403.22	6256.54
403.43	6479.77
403.63	6432.67
403.84	6821.78
404.05	6956.95
404.26	7118.74
404.47	7221.14
404.68	7683.98
404.89	7815.05
405.09	7980.93
405.30	8257.41
405.51	8445.82
405.72	9156.47
405.93	9019.25
406.14	9162.61
406.35	10239.84
406.55	10405.73
406.76	10528.61
406.97	11079.51
407.18	11470.67
407.39	11999.05
407.60	12502.85
407.80	12674.88
408.01	13078.33
408.22	13831.98
408.43	13991.72
408.64	14577.44
408.85	15214.36
409.05	15480.60
409.26	16441.09
409.47	16944.89
409.68	17016.57
409.89	17731.31
410.10	18202.35
410.30	19017.44
410.51	19723.99
410.72	20408.01
410.93	20539.08
411.14	21868.21
411.35	22298.28
411.55	22660.77
411.76	23733.91
411.97	24194.70
412.18	25863.80
412.39	25706.10
412.59	26543.72
412.80	27379.29
413.01	28585.55
413.22	28929.61
413.43	29789.75
413.63	30311.99
413.84	30981.67
414.05	31344.16
414.26	32636.43
414.47	33498.62
414.67	34655.73
414.88	34807.28
415.09	35362.28
415.30	36623.83
415.51	37178.82
415.71	37731.78
415.92	39019.95
416.13	39333.29
416.34	40205.72
416.55	41051.53
416.75	41710.98
416.96	41899.39
417.17	42569.08
417.38	43533.67
417.59	44528.98
417.79	44391.77
418.00	45839.68
418.21	46333.24
418.42	46579.00
418.62	47437.10
418.83	48094.50
419.04	48217.38
419.25	49206.55
419.46	50001.16
419.66	51238.13
419.87	51117.30
420.08	51809.51
420.29	51074.29
420.49	52704.48
420.70	53353.68
420.91	53173.46
421.12	53746.89
421.32	53886.15
421.53	54525.12
421.74	55196.85
421.95	54918.33
422.15	55291.06
422.36	55803.05
422.57	56290.47
422.78	55882.92
422.98	57336.98
423.19	57760.91
423.40	56575.14
423.61	57840.78
423.81	59057.27
424.02	58197.13
424.23	58709.12
424.44	58629.25
424.64	58655.87
424.85	58227.85
425.06	59184.25
425.27	58879.10
425.47	60089.45
425.68	59747.44
425.89	60058.73
426.10	60028.01
426.30	60200.04
426.51	59606.13
426.72	60572.77
426.92	61066.33
427.13	60793.95
427.34	60634.21
427.55	61082.72
427.75	61054.04
427.96	60785.76
428.17	61394.01
428.38	61181.02
428.58	61113.44
428.79	61617.24
429.00	61164.63
429.20	61334.62
429.41	61357.14
429.62	60552.29
429.82	61307.99
430.03	61215.83
430.24	61553.75
430.45	61459.54
430.65	62159.95
430.86	62383.18
431.07	61609.04
431.27	61598.80
431.48	61572.18
431.69	61299.80
431.90	61473.88
432.10	61277.27
432.31	61486.17
432.52	61498.45
432.72	62065.74
432.93	62018.64
433.14	61076.57
433.34	61938.77
433.55	60789.86
433.76	61609.04
433.96	61987.92
434.17	60650.59
434.38	62061.64
434.58	61985.87
434.79	61152.35
435.00	61396.06
435.21	61920.34
435.41	61908.05
435.62	61129.82
435.83	61396.06
436.03	60396.65
436.24	61506.65
436.45	60949.60
436.65	61084.76
436.86	61336.66
437.07	61449.30
437.27	61045.85
437.48	62577.73
437.69	61043.80
437.89	61422.68
438.10	61029.47
438.31	61932.62
438.51	61246.55
438.72	61314.14
438.92	61285.46
439.13	60408.93
439.34	60890.21
439.54	62104.65
439.75	61398.10
439.96	59835.50
440.16	59915.37
440.37	60437.61
440.58	60318.82
440.78	59888.75
440.99	59483.25
441.20	61332.57
441.40	60443.75
441.61	59376.76
441.82	59868.27
442.02	59720.82
442.23	58952.83
442.43	59425.91
442.64	60402.79
442.85	59532.40
443.05	59694.19
443.26	60154.99
443.47	58784.90
443.67	59696.24
443.88	59047.04
444.08	59028.60
444.29	58150.02
444.50	58535.04
444.70	57816.21
444.91	58606.72
445.12	58221.70
445.32	57631.89
445.53	58244.23
445.73	57439.38
445.94	57269.40
446.15	56761.50
446.35	57898.12
446.56	57273.49
446.76	57015.45
446.97	56620.19
447.18	55958.70
447.38	55903.40
447.59	56880.28
447.79	56579.23
448.00	55801.00
448.21	55647.41
448.41	55475.38
448.62	55579.82
448.82	55487.67
449.03	54437.06
449.24	54039.75
449.44	54121.67
449.65	54465.73
449.85	55399.60
450.06	54533.31
450.27	53554.38
450.47	53673.16
450.68	53245.14
450.88	52954.33
451.09	53077.21
451.29	52829.40
451.50	52079.85
451.71	52067.56
451.91	52372.70
452.12	51801.32
452.32	51815.66
452.53	51483.89
452.73	51234.03
452.94	51176.69
453.15	51219.70
453.35	50478.33
453.56	50246.91
453.76	49702.15
453.97	49562.89
454.17	50269.44
454.38	50001.16
454.59	49186.07
454.79	48311.58
455.00	49509.64
455.20	48880.92
455.41	48082.21
455.61	48110.88
455.82	49122.58
456.02	47539.50
456.23	47609.13
456.44	47367.47
456.64	47093.04
456.85	46982.45
457.05	47027.51
457.26	47633.71
457.46	47283.50
457.67	46705.98
457.87	46691.64
458.08	46277.95
458.28	46148.93
458.49	45323.60
458.69	45815.11
458.90	45186.38
459.11	44735.83
459.31	45845.83
459.52	45174.09
459.72	44053.86
459.93	45088.08
460.13	44483.93
460.34	45458.76
460.54	44479.83
460.75	43605.35
460.95	44125.53
461.16	43253.10
461.36	43631.97
461.57	43390.31
461.77	43654.50
461.98	43156.85
462.18	43257.20
462.39	42687.86
462.59	43263.34
462.80	42546.55
463.00	42472.82
463.21	42575.22
463.41	41997.70
463.62	42339.71
463.82	42069.37
464.03	42468.73
464.23	42517.88
464.44	41571.72
464.64	41907.58
464.85	41475.46
465.05	41684.36
465.26	42179.96
465.46	40928.66
465.67	41211.28
465.87	40502.68
466.08	40695.19
466.28	41698.69
466.49	41104.78
466.69	40510.87
466.90	40433.05
467.10	40555.93
467.31	39941.53
467.51	40668.56
467.72	40531.35
467.92	40340.89
468.13	40357.27
468.33	40158.62
468.54	40265.11
468.74	40359.32
468.95	39634.34
469.15	39882.14
469.35	39964.06
469.56	39097.77
469.76	39429.54
469.97	39259.56
470.17	40054.17
470.38	39030.19
470.58	39744.93
470.79	39531.94
470.99	39876.00
471.20	39683.49
471.40	40031.65
471.61	39839.14
471.81	39058.86
472.01	39785.89
472.22	39286.18
472.42	39312.81
472.63	39495.08
472.83	39370.15
473.04	38798.77
473.24	39503.27
473.45	39620.00
473.65	39277.99
473.85	38987.18
474.06	39296.42
474.26	39382.44
474.47	39515.56
474.67	38813.10
474.88	39331.24
475.08	39089.58
475.28	39511.46
475.49	39230.89
475.69	39261.61
475.90	39097.77
476.10	39065.00
476.31	39562.66
476.51	39136.68
476.71	39376.30
476.92	39249.32
477.12	39243.18
477.33	39114.16
477.53	39202.22
477.73	39345.58
477.94	38804.91
478.14	39296.42
478.35	38557.11
478.55	39384.49
478.76	39134.63
478.96	38811.06
479.16	39194.03
479.37	39210.41
479.57	38391.22
479.78	38954.41
479.98	38563.25
480.18	39267.75
480.39	38469.04
480.59	38956.46
480.80	38757.81
481.00	38688.18
481.20	38045.12
481.41	38796.72
481.61	38534.58
481.81	38163.90
482.02	38278.58
482.22	38397.37
482.43	38331.83
482.63	38239.67
482.83	37955.00
483.04	38671.79
483.24	37981.63
483.45	38129.08
483.65	38215.10
483.85	37858.75
484.06	37889.47
484.26	37815.74
484.46	38161.85
484.67	37928.38
484.87	37615.04
485.07	37596.61
485.28	37516.74
485.48	37436.87
485.69	37193.16
485.89	37221.83
486.09	37377.48
486.30	37230.02
486.50	37289.42
486.70	37211.59
486.91	37010.89
487.11	36951.50
487.31	36771.28
487.52	36924.88
487.72	36799.95
487.92	36863.44
488.13	37096.91
488.33	36822.48
488.54	36275.67
488.74	36496.85
488.94	36646.35
489.15	35995.10
489.35	36883.92
489.55	36165.08
489.76	35991.00
489.96	36126.17
490.16	35804.64
490.37	35413.48
490.57	35864.03
490.77	35765.73
490.98	35601.89
491.18	35556.83
491.38	35735.01
491.59	35427.81
491.79	35409.38
491.99	35532.26
492.19	35034.60
492.40	35399.14
492.60	35198.44
492.80	34921.96
493.01	34917.87
493.21	35597.79
493.41	34432.50
493.62	34924.01
493.82	34645.49
494.02	34827.76
494.23	34561.52
494.43	35022.31
494.63	34831.85
494.84	34037.24
495.04	34215.41
495.24	34500.08
495.44	34256.37
495.65	34006.52
495.85	33945.08
496.05	34397.68
496.26	34043.38
496.46	34186.74
496.66	33940.99
496.86	33728.00
497.07	33537.54
497.27	33895.93
497.47	33363.46
497.68	33224.20
497.88	34227.70
498.08	33512.96
498.28	33400.32
498.49	33338.88
498.69	33185.29
498.89	32974.34
499.10	33476.10
499.30	32986.63
499.50	32798.22
499.70	33089.03
499.91	32798.22
500.11	32364.05
500.31	32744.97
500.51	32634.38
500.72	32574.99
500.92	32577.04
501.12	32667.15
501.33	32175.64
501.53	32218.64
501.73	32263.70
501.93	32497.17
502.14	32202.26
502.34	32357.91
502.54	32093.72
502.74	31600.16
502.95	31680.03
503.15	31591.97
503.35	32005.66
503.55	31858.20
503.76	31639.07
503.96	31145.51
504.16	31505.95
504.36	31295.01
504.57	30946.86
504.77	31252.00
504.97	31325.73
505.17	30971.43
505.37	30842.41
505.58	30314.03
505.78	31034.92
505.98	31065.64
506.18	30615.08
506.39	30733.87
506.59	30408.24
506.79	30359.09
506.99	30152.24
507.20	30201.40
507.40	30426.67
507.60	30377.52
507.80	29980.21
508.00	30191.16
508.21	30225.97
508.41	30150.20
508.61	29554.24
508.81	29630.01
509.01	29863.48
509.22	29767.23
509.42	29791.80
509.62	29697.59
509.82	29277.76
510.02	30023.22
510.23	29576.76
510.43	29105.73
510.63	29427.26
510.83	29361.73
511.03	29437.50
511.24	29050.44
511.44	29267.52
511.64	29427.26
511.84	28954.18
512.04	28589.64
512.25	28778.06
512.45	28931.65
512.65	28661.32
512.85	28636.75
513.05	28546.64
513.26	28329.55
513.46	28173.91
513.66	28194.39
513.86	28036.69
514.06	27991.64
514.26	28345.94
514.47	27643.48
514.67	27893.33
514.87	27842.14
515.07	27782.74
515.27	27151.97
515.47	27223.65
515.68	27092.58
515.88	27127.39
516.08	26793.58
516.28	27151.97
516.48	27309.66
516.68	26439.28
516.89	26750.57
517.09	26629.74
517.29	26482.28
517.49	26383.98
517.69	26908.26
517.89	26431.08
518.09	26263.15
518.30	25826.93
518.50	26025.59
518.70	25955.96
518.90	25988.72
519.10	26218.10
519.30	25544.31
519.50	25476.73
519.71	25253.50
519.91	25159.30
520.11	25249.41
520.31	25011.84
520.51	25812.60
520.71	24983.17
520.91	24989.31
521.12	24718.98
521.32	24874.63
521.52	24442.51
521.72	24381.07
521.92	24348.30
522.12	24512.14
522.32	24497.80
522.52	23799.44
522.73	23735.96
522.93	23877.27
523.13	23617.18
523.33	23430.81
523.53	23578.26
523.73	23105.18
523.93	23201.44
524.13	23369.37
524.33	24770.18
524.54	23008.93
524.74	22726.31
524.94	22683.30
525.14	22650.53
525.34	22585.00
525.54	22109.87
525.74	22124.21
525.94	22126.25
526.14	22040.24
526.34	21888.69
526.55	21558.97
526.75	21550.78
526.95	21345.98
527.15	21296.83
527.35	20901.57
527.55	20674.24
527.75	21147.33
527.95	20696.77
528.15	20414.15
528.35	20502.22
528.55	20610.76
528.75	20043.47
528.96	20154.06
529.16	19783.38
529.36	19908.30
529.56	20022.99
529.76	19640.02
529.96	19820.24
530.16	19603.16
530.36	19445.46
530.56	19109.60
530.76	19060.45
530.96	18593.51
531.16	19113.69
531.36	18812.64
531.56	19211.99
531.76	18869.98
531.96	18454.25
532.17	18173.67
532.37	17991.41
532.57	17915.63
532.77	17809.14
532.97	17587.96
533.17	17860.34
533.37	17344.25
533.57	17473.27
533.77	17508.08
533.97	17508.08
534.17	17282.81
534.37	17049.34
534.57	17157.88
534.77	16983.80
534.97	16537.35
535.17	16428.81
535.37	16611.07
535.57	16449.28
535.77	16492.29
535.97	16111.37
536.17	16060.17
536.37	16101.13
536.57	16064.27
536.77	15834.89
536.97	15632.15
537.17	15834.89
537.37	15296.28
537.57	15226.65
537.77	15300.37
537.97	15240.98
538.18	14855.97
538.38	14972.70
538.58	15439.64
538.78	15021.85
538.98	14913.31
539.18	14692.13
539.38	14473.00
539.58	14561.06
539.78	14776.09
539.98	14362.40
540.18	14292.77
540.38	14145.32
540.58	14524.19
540.78	13967.15
540.98	13827.88
541.18	13715.25
541.38	13750.06
541.58	13770.54
541.77	13600.56
541.97	13694.77
542.17	13774.64
542.37	13133.62
542.57	13023.03
542.77	13258.55
542.97	13516.59
543.17	12990.27
543.37	12998.46
543.57	12861.24
543.77	12998.46
543.97	12840.76
544.17	12711.74
544.37	12500.80
544.57	12828.48
544.77	12525.38
544.97	12511.04
545.17	12418.88
545.37	12384.07
545.57	11958.09
545.77	12289.86
545.97	11978.57
546.17	12480.32
546.37	11904.84
546.57	11665.23
546.77	11939.66
546.97	11614.03
547.17	11398.99
547.37	11341.65
547.57	11442.00
547.76	11525.97
547.96	11181.91
548.16	11046.74
548.36	10948.44
548.56	10745.69
548.76	10843.99
548.96	10776.41
549.16	10778.46
549.36	10946.39
549.56	10549.09
549.76	11099.99
549.96	10610.53
550.16	10536.80
550.36	10585.95
550.56	10596.19
550.75	10266.47
550.95	10446.69
551.15	9957.22
551.35	9996.14
551.55	10090.34
551.75	9992.04
551.95	10016.62
552.15	9590.64
552.35	10219.36
552.55	9965.42
552.75	9570.16
552.95	9326.45
553.14	9647.98
553.34	9809.77
553.54	9373.55
553.74	9420.66
553.94	9441.14
554.14	9418.61
554.34	9385.84
554.54	9244.53
554.74	9226.10
554.94	9271.15
555.13	9181.04
555.33	8583.04
555.53	8839.03
555.73	9033.59
555.93	8857.46
556.13	9062.26
556.33	8947.58
556.53	9080.69
556.73	8408.96
556.92	8873.85
557.12	8607.61
557.32	8421.25
557.52	8179.59
557.72	8388.48
557.92	8388.48
558.12	8384.38
558.32	8335.23
558.51	8421.25
558.71	8214.40
558.91	8499.07
559.11	8120.20
559.31	8071.04
559.51	7845.77
559.71	7880.58
559.91	7692.17
560.10	7638.92
560.30	8310.66
560.50	7829.38
560.70	7688.07
560.90	7395.22
561.10	7528.33
561.29	7851.91
561.49	7341.97
561.69	7401.36
561.89	7411.60
562.09	7393.17
562.29	7436.17
562.49	7085.97
562.68	7331.73
562.88	7446.41
563.08	7309.20
563.28	6864.79
563.48	7018.39
563.68	7391.12
563.87	7174.03
564.07	6647.71
564.27	6811.54
564.47	6995.86
564.67	6494.11
564.87	6461.34
565.06	6647.71
565.26	6715.29
565.46	6649.75
565.66	6358.94
565.86	6975.38
566.05	6358.94
566.25	6295.46
566.45	6270.88
566.65	6692.76
566.85	6315.94
567.05	5969.83
567.24	6201.25
567.44	6119.33
567.64	6461.34
567.84	6047.65
568.04	5896.10
568.23	6268.83
568.43	6696.86
568.63	5701.54
568.83	6180.77
569.03	6035.36
569.22	6182.82
569.42	6004.64
569.62	5789.61
569.82	5918.63
570.02	5844.90
570.21	5756.84
570.41	5676.97
570.61	5623.72
570.81	5902.25
571.00	5607.34
571.20	5361.58
571.40	5910.44
571.60	5629.87
571.80	5402.54
571.99	5367.73
572.19	5607.34
572.39	5629.87
572.59	5076.91
572.78	5074.87
572.98	5361.58
573.18	5457.84
573.38	5171.12
573.57	5384.11
573.77	5408.69
573.97	5425.07
574.17	4888.50
574.36	5083.06
574.56	5210.03
574.76	4937.65
574.96	5027.76
575.15	5228.46
575.35	5185.46
575.55	5189.55
575.75	5107.63
575.94	4972.47
576.14	5072.82
576.34	5070.77
576.54	4716.47
576.73	4933.56
576.93	4855.73
577.13	4739.00
577.33	5113.78
577.52	4548.54
577.72	4665.27
577.92	4771.77
578.12	4528.06
578.31	4960.18
578.51	5236.66
578.71	4892.60
578.90	4528.06
579.10	4933.56
579.30	4669.37
579.50	4589.50
579.69	4313.02
579.89	4396.99
580.09	4728.76
580.29	4657.08
580.48	4388.80
580.68	4339.65
580.88	4661.18
581.07	4327.36
581.27	4382.65
581.47	4319.17
581.66	4380.61
581.86	4941.75
582.06	4161.47
582.26	4208.58
582.45	4130.75
582.65	4800.44
582.85	4175.81
583.04	4075.46
583.24	4409.28
583.44	4212.67
583.63	4026.31
583.83	4032.45
584.03	4251.58
584.22	4423.61
584.42	4110.27
584.62	3958.72
584.82	4128.70
585.01	4403.13
585.21	4069.31
585.41	3899.33
585.60	4106.18
585.80	3856.33
586.00	3940.29
586.19	3612.62
586.39	3739.59
586.59	4079.55
586.78	3964.87
586.98	3858.37
587.18	3954.63
587.37	3985.35
587.57	3788.74
587.77	3878.85
587.96	3850.18
588.16	3911.62
588.36	3669.96
588.55	3659.72
588.75	4196.29
588.94	3862.47
589.14	3528.65
589.34	3833.80
589.53	4116.42
589.73	3776.45
589.93	3669.96
590.12	3508.17
590.32	3710.92
590.52	3880.90
590.71	3719.11
590.91	3459.02
591.11	3692.49
591.30	3801.03
591.50	3434.44
591.69	3254.22
591.89	3852.23
592.09	3721.16
592.28	3540.94
592.48	3463.12
592.68	3684.30
592.87	3678.15
593.07	3473.36
593.26	3368.91
593.46	3461.07
593.66	3821.51
593.85	3295.18
594.05	3471.31
594.24	3508.17
594.44	3383.24
594.64	3547.08
594.83	3076.05
595.03	3948.48
595.23	3565.51
595.42	3262.41
595.62	3430.35
595.81	3571.66
596.01	3223.50
596.20	3172.30
596.40	3211.22
596.60	3299.28
596.79	3780.55
596.99	3178.45
597.18	3104.72
597.38	3381.20
597.58	3348.43
597.77	2965.46
597.97	2883.54
598.16	3391.44
598.36	3583.95
598.56	2938.84
598.75	3327.95
598.95	3373.00
599.14	3393.48
599.34	3280.85
599.53	3135.44
599.73	3313.61
599.93	3622.86
600.12	3149.78
600.32	3313.61
600.51	3268.56
600.71	3147.73
600.90	3239.89
601.10	3100.62
601.29	3553.23
601.49	3258.32
601.69	2928.60
601.88	3168.21
602.08	3403.72
602.27	3385.29
602.47	2912.21
602.66	2944.98
602.86	3411.92
603.05	3444.68
603.25	2973.65
603.45	3080.14
603.64	3350.48
603.84	3143.63
604.03	2801.62
604.23	3028.95
604.42	3186.64
604.62	3153.87
604.81	2813.91
605.01	3155.92
605.20	3350.48
605.40	3033.04
605.59	2818.00
605.79	2844.63
605.98	2985.94
606.18	3276.75
606.37	3215.31
606.57	3002.32
606.77	3071.95
606.96	2957.27
607.16	2711.51
607.35	2740.18
607.55	3078.10
607.74	3125.20
607.94	2840.53
608.13	2668.50
608.33	3080.14
608.52	2949.08
608.72	2703.32
608.91	2873.30
609.11	2795.48
609.30	3086.29
609.50	2789.33
609.69	2654.17
609.89	3231.69
610.08	3215.31
610.28	2623.45
610.47	2791.38
610.67	2912.21
610.86	3098.58
611.06	3004.37
611.25	2842.58
611.44	2957.27
611.64	3049.43
611.83	2981.84
612.03	2691.03
612.22	2805.72
612.42	2891.73
612.61	2666.46
612.81	2662.36
613.00	2936.79
613.20	2895.83
613.39	2709.46
613.59	2768.85
613.78	2799.57
613.98	3307.47
614.17	2813.91
614.37	2949.08
614.56	2772.95
614.75	2932.69
614.95	2715.61
615.14	2686.94
615.34	2621.40
615.53	3241.93
615.73	3055.57
615.92	2686.94
616.12	2695.13
616.31	2842.58
616.50	2760.66
616.70	2662.36
616.89	2793.43
617.09	3047.38
617.28	2744.28
617.48	2828.24
617.67	2858.96
617.87	3012.56
618.06	2686.94
618.25	2428.89
618.45	2777.05
618.64	3164.11
618.84	2777.05
619.03	2781.14
619.23	2809.81
619.42	2564.06
619.61	2717.65
619.81	2779.09
620.00	2842.58
620.20	2852.82
620.39	2719.70
620.58	2562.01
620.78	2641.88
620.97	2856.92
621.17	2533.34
621.36	2379.74
621.55	2920.40
621.75	2756.57
621.94	2727.89
622.14	2482.14
622.33	2582.49
622.52	2910.16
622.72	2303.96
622.91	2635.74
623.11	2846.68
623.30	2625.50
623.49	2635.74
623.69	2557.91
623.88	2711.51
624.08	2936.79
624.27	2682.84
624.46	2600.92
624.66	2623.45
624.85	2961.36
625.05	2686.94
625.24	2533.34
625.43	2645.98
625.63	2678.74
625.82	2437.08
626.01	2322.40
626.21	2750.42
626.40	2813.91
626.59	2500.57
626.79	2707.41
626.98	2740.18
627.18	2545.63
627.37	2721.75
627.56	2359.26
627.76	2662.36
627.95	2723.80
628.14	2342.88
628.34	2570.20
628.53	2785.24
628.72	2738.13
628.92	2379.74
629.11	2731.99
629.30	2580.44
629.50	2486.23
629.69	2506.71
629.88	2672.60
630.08	2738.13
630.27	2617.30
630.46	2392.03
630.66	2594.78
630.85	2549.72
631.04	2635.74
631.24	2625.50
631.43	2418.65
631.62	2623.45
631.82	2766.81
632.01	2394.08
632.20	2420.70
632.40	3319.76
632.59	2719.70
632.78	2336.73
632.98	2295.77
633.17	2703.32
633.36	2834.39
633.56	2301.92
633.75	2346.97
633.94	2441.18
634.14	2852.82
634.33	2396.12
634.52	2535.39
634.71	2578.39
634.91	2789.33
635.10	2488.28
635.29	2357.21
635.49	2639.83
635.68	2582.49
635.87	2373.60
636.07	2263.01
636.26	2551.77
636.45	2863.06
636.64	2549.72
636.84	2418.65
637.03	2781.14
637.22	2729.94
637.42	2435.03
637.61	2471.90
637.80	2840.53
637.99	2635.74
638.19	2318.30
638.38	2551.77
638.57	2527.19
638.76	2607.06
638.96	2437.08
639.15	2637.78
639.34	2566.10
639.54	2377.69
639.73	2258.91
639.92	2326.49
640.11	2310.11
640.31	2721.75
640.50	2406.36
640.69	2498.52
640.88	2586.58
641.08	2643.93
641.27	2361.31
641.46	2412.51
641.65	2283.49
641.85	2475.99
642.04	2731.99
642.23	2344.92
642.42	2533.34
642.62	2590.68
642.81	2217.95
643.00	2619.35
643.19	2625.50
643.38	2418.65
643.58	2148.32
643.77	2236.38
643.96	2619.35
644.15	2680.79
644.35	2308.06
644.54	2150.37
644.73	2658.26
644.92	2562.01
645.12	2596.82
645.31	2158.56
645.50	2482.14
645.69	2461.66
645.88	2254.81
646.08	2240.48
646.27	2322.40
646.46	2271.20
646.65	2482.14
646.84	2324.44
647.04	2605.02
647.23	2389.98
647.42	2375.64
647.61	2527.19
647.80	2506.71
648.00	2627.54
648.19	2252.77
648.38	2306.01
648.57	2514.91
648.76	2545.63
648.96	2402.27
649.15	2418.65
649.34	2301.92
649.53	2564.06
649.72	2142.18
649.92	2572.25
650.11	2314.20
650.30	2400.22
650.49	2138.08
650.68	2215.90
650.87	2400.22
651.07	2269.15
651.26	2377.69
651.45	2340.83
651.64	2326.49
651.83	2516.95
652.02	2277.34
652.22	2158.56
652.41	2351.07
652.60	2516.95
652.79	2154.46
652.98	2295.77
653.17	2555.86
653.37	2437.08
653.56	2432.99
653.75	2406.36
653.94	2486.23
654.13	2564.06
654.32	2320.35
654.51	2271.20
654.71	2451.42
654.90	2437.08
655.09	2197.47
655.28	2301.92
655.47	2639.83
655.66	2613.21
655.85	2306.01
656.05	2469.85
656.24	2637.78
656.43	2486.23
656.62	2312.16
656.81	2447.32
657.00	2400.22
657.19	2334.68
657.38	2197.47
657.58	2486.23
657.77	2322.40
657.96	2416.60
658.15	2240.48
658.34	2377.69
658.53	2324.44
658.72	2420.70
658.91	2263.01
659.10	2568.15
659.30	2392.03
659.49	2609.11
659.68	2320.35
659.87	2359.26
660.06	2494.43
660.25	2412.51
660.44	2473.95
660.63	2123.74
660.82	2480.09
661.01	2541.53
661.21	2209.76
661.40	2308.06
661.59	2281.44
661.78	2265.05
661.97	2215.90
662.16	2416.60
662.35	2324.44
662.54	2445.27
662.73	2369.50
662.92	2369.50
663.11	2621.40
663.30	2373.60
663.50	2252.77
663.69	2174.94
663.88	2582.49
664.07	2400.22
664.26	2342.88
664.45	2361.31
664.64	2453.47
664.83	2162.66
665.02	2166.75
665.21	2504.67
665.40	2301.92
665.59	2527.19
665.78	2506.71
665.97	2293.72
666.16	2377.69
666.35	2359.26
666.54	2187.23
666.73	2484.19
666.93	2207.71
667.12	2566.10
667.31	2478.04
667.50	2299.87
667.69	2283.49
667.88	2340.83
668.07	2289.63
668.26	2197.47
668.45	2684.89
668.64	2531.29
668.83	2217.95
669.02	2220.00
669.21	2142.18
669.40	2478.04
669.59	2418.65
669.78	2303.96
669.97	2353.12
670.16	2451.42
670.35	2195.42
670.54	2197.47
670.73	2351.07
670.92	2103.26
671.11	2326.49
671.30	2373.60
671.49	2703.32
671.68	2516.95
671.87	2297.82
672.06	2361.31
672.25	2406.36
672.44	2568.15
672.63	2117.60
672.82	2308.06
673.01	2445.27
673.20	2553.82
673.39	2269.15
673.58	2166.75
673.77	2123.74
673.96	2203.61
674.15	2217.95
674.34	2295.77
674.53	2549.72
674.72	2402.27
674.91	2359.26
675.10	2263.01
675.29	2365.40
675.48	2109.41
675.67	2105.31
675.86	2242.53
676.05	2306.01
676.24	2265.05
676.43	2318.30
676.62	2531.29
676.81	2420.70
677.00	2568.15
677.19	2093.02
677.38	2136.03
677.57	2445.27
677.75	2482.14
677.94	2248.67
678.13	2172.89
678.32	2312.16
678.51	2621.40
678.70	2054.11
678.89	2453.47
679.08	2140.13
679.27	2303.96
679.46	2158.56
679.65	2410.46
679.84	2146.27
680.03	2351.07
680.22	2330.59
680.41	2342.88
680.60	2666.46
680.79	2627.54
680.97	2064.35
681.16	2248.67
681.35	2461.66
681.54	2306.01
681.73	2201.57
681.92	2269.15
682.11	2342.88
682.30	2498.52
682.49	2121.70
682.68	2127.84
682.87	2283.49
683.06	2349.02
683.25	2357.21
683.43	2123.74
683.62	2459.61
683.81	2482.14
684.00	2293.72
684.19	2226.14
684.38	2392.03
684.57	2654.17
684.76	2168.80
684.95	2232.29
685.14	2551.77
685.32	2416.60
685.51	2047.97
685.70	2359.26
685.89	2273.25
686.08	2306.01
686.27	2015.20
686.46	2267.10
686.65	2295.77
686.83	2314.20
687.02	2234.33
687.21	2172.89
687.40	2473.95
687.59	2322.40
687.78	2365.40
687.97	2035.68
688.16	2502.62
688.34	2490.33
688.53	2265.05
688.72	2244.57
688.91	2506.71
689.10	2482.14
689.29	2342.88
689.48	2154.46
689.66	2430.94
689.85	2592.73
690.04	2291.68
690.23	2392.03
690.42	2303.96
690.61	2437.08
690.80	2209.76
690.98	2226.14
691.17	2551.77
691.36	2867.16
691.55	2215.90
691.74	2205.66
691.93	2199.52
692.11	2236.38
692.30	2211.81
692.49	2629.59
692.68	2631.64
692.87	2369.50
693.06	2011.11
693.24	2256.86
693.43	2250.72
693.62	2387.93
693.81	2125.79
694.00	2125.79
694.19	2367.45
694.37	2303.96
694.56	2072.54
694.75	2404.32
694.94	2277.34
695.13	2127.84
695.31	2088.93
695.50	2084.83
695.69	2537.43
695.88	2566.10
696.07	2408.41
696.25	2435.03
696.44	2379.74
696.63	2584.54
696.82	2193.37
697.01	2197.47
697.19	2256.86
697.38	2525.15
697.57	2136.03
697.76	2363.36
697.95	2525.15
698.13	2349.02
698.32	2211.81
698.51	2236.38
698.70	2435.03
698.88	2207.71
699.07	2084.83
699.26	2058.21
699.45	2306.01
699.64	2400.22
699.82	2148.32
700.01	2236.38
700.20	2199.52
700.39	2469.85
700.57	2232.29
700.76	2449.37
700.95	2193.37
701.14	2658.26
701.32	2125.79
701.51	2172.89
701.70	2326.49
701.89	2281.44
702.07	2228.19
702.26	2295.77
702.45	2379.74
702.64	2424.80
702.82	2193.37
703.01	2258.91
703.20	2363.36
703.39	2443.23
703.57	2387.93
703.76	2637.78
703.95	2306.01
704.14	2314.20
704.32	2099.17
704.51	2285.53
704.70	2240.48
704.89	2349.02
705.07	2250.72
705.26	2379.74
705.45	2105.31
705.63	2285.53
705.82	2230.24
706.01	2312.16
706.20	2263.01
706.38	2316.25
706.57	2088.93
706.76	2131.94
706.94	2205.66
707.13	2336.73
707.32	2469.85
707.51	2023.39
707.69	2293.72
707.88	2750.42
708.07	2138.08
708.25	2088.93
708.44	2211.81
708.63	2127.84
708.81	2125.79
709.00	2326.49
709.19	2394.08
709.37	2260.96
709.56	2107.36
709.75	2279.39
709.94	2359.26
710.12	2301.92
710.31	2310.11
710.50	2328.54
710.68	2346.97
710.87	2519.00
711.06	2179.04
711.24	2455.51
711.43	2303.96
711.62	2582.49
711.80	2185.18
711.99	2355.16
712.18	2150.37
712.36	2355.16
712.55	2228.19
712.74	2291.68
712.92	2263.01
713.11	2308.06
713.30	2166.75
713.48	2220.00
713.67	2238.43
713.85	2410.46
714.04	2172.89
714.23	2686.94
714.41	2115.55
714.60	2336.73
714.79	2291.68
714.97	2519.00
715.16	2279.39
715.35	2398.17
715.53	2090.98
715.72	2299.87
715.91	2158.56
716.09	2420.70
716.28	2199.52
716.46	2252.77
716.65	2510.81
716.84	2559.96
717.02	2133.98
717.21	2199.52
717.40	2211.81
717.58	2146.27
717.77	2209.76
717.95	2404.32
718.14	2553.82
718.33	2463.71
718.51	2209.76
718.70	2115.55
718.88	2377.69
719.07	2269.15
719.26	2117.60
719.44	2267.10
719.63	2230.24
719.81	2258.91
720.00	2142.18
720.19	2220.00
720.37	2181.09
720.56	2416.60
720.74	2222.05
720.93	2326.49
721.12	2185.18
721.30	2342.88
721.49	2095.07
721.67	2226.14
721.86	2263.01
722.04	2457.56
722.23	2119.65
722.42	2299.87
722.60	2330.59
722.79	2342.88
722.97	2271.20
723.16	2072.54
723.34	2281.44
723.53	2381.79
723.72	2514.91
723.90	2285.53
724.09	2289.63
724.27	2465.75
724.46	2191.33
724.64	2150.37
724.83	2322.40
725.01	2318.30
725.20	2125.79
725.39	2238.43
725.57	2607.06
725.76	2455.51
725.94	2078.69
726.13	2078.69
726.31	2183.13
726.50	2349.02
726.68	2314.20
726.87	2285.53
727.05	2291.68
727.24	2265.05
727.42	2398.17
727.61	2250.72
727.80	2029.54
727.98	2516.95
728.17	2000.87
728.35	2254.81
728.54	2260.96
728.72	2371.55
728.91	2275.29
729.09	2019.30
729.28	2496.47
729.46	2461.66
729.65	2193.37
729.83	2179.04
730.02	2572.25
730.20	2369.50
730.39	2598.87
730.57	2228.19
730.76	2250.72
730.94	2627.54
731.13	2322.40
731.31	2047.97
731.50	2088.93
731.68	2234.33
731.87	2099.17
732.05	2232.29
732.24	2320.35
732.42	2303.96
732.61	2172.89
732.79	2287.58
732.98	2490.33
733.16	2404.32
733.35	2142.18
733.53	2220.00
733.71	2260.96
733.90	2295.77
734.08	2164.70
734.27	2258.91
734.45	2279.39
734.64	2248.67
734.82	2240.48
735.01	2121.70
735.19	2224.09
735.38	2383.84
735.56	2537.43
735.75	2568.15
735.93	2293.72
736.11	2473.95
736.30	2285.53
736.48	2150.37
736.67	2424.80
736.85	2353.12
737.04	2123.74
737.22	2430.94
737.41	2320.35
737.59	2131.94
737.77	2353.12
737.96	2080.74
738.14	2490.33
738.33	2514.91
738.51	2152.42
738.70	2361.31
738.88	1976.29
739.06	2490.33
739.25	2291.68
739.43	2234.33
739.62	2389.98
739.80	2379.74
739.99	2252.77
740.17	2267.10
740.35	2500.57
740.54	2312.16
740.72	2203.61
740.91	2285.53
741.09	2207.71
741.27	2467.80
741.46	2342.88
741.64	2115.55
741.83	2418.65
742.01	2459.61
742.19	2203.61
742.38	2275.29
742.56	2469.85
742.75	2441.18
742.93	2363.36
743.11	2498.52
743.30	2449.37
743.48	2232.29
743.67	2203.61
743.85	2287.58
744.03	2232.29
744.22	2523.10
744.40	2387.93
744.58	2254.81
744.77	2416.60
744.95	2459.61
745.14	1988.58
745.32	2203.61
745.50	2146.27
745.69	2299.87
745.87	2043.87
746.05	2435.03
746.24	2258.91
746.42	2097.12
746.61	2162.66
746.79	2322.40
746.97	2500.57
747.16	2412.51
747.34	2473.95
747.52	2467.80
747.71	2461.66
747.89	2306.01
748.07	2105.31
748.26	2039.78
748.44	2609.11
748.62	2342.88
748.81	2291.68
748.99	2263.01
749.17	2328.54
749.36	2394.08
749.54	2105.31
749.72	2228.19
749.91	2125.79
750.09	2396.12
750.27	2154.46
750.46	2146.27
750.64	2439.13
750.82	2226.14
751.01	2080.74
751.19	2226.14
751.37	2369.50
751.56	2516.95
751.74	2002.91
751.92	2183.13
752.10	2385.88
752.29	2136.03
752.47	2289.63
752.65	2230.24
752.84	2203.61
753.02	2168.80
753.20	2357.21
753.39	2250.72
753.57	2340.83
753.75	2541.53
753.93	2396.12
754.12	2041.82
754.30	2252.77
754.48	2394.08
754.67	2170.85
754.85	2179.04
755.03	2306.01
755.21	2711.51
755.40	2355.16
755.58	2109.41
755.76	2404.32
755.95	2418.65
756.13	2127.84
756.31	2263.01
756.49	2414.56
756.68	2277.34
756.86	2226.14
757.04	2459.61
757.22	2523.10
757.41	2453.47
757.59	2510.81
757.77	2443.23
757.95	2740.18
758.14	2392.03
758.32	2367.45
758.50	2322.40
758.68	2490.33
758.87	2633.69
759.05	2254.81
759.23	2459.61
759.41	2207.71
759.60	2412.51
759.78	2392.03
759.96	2093.02
760.14	2418.65
760.33	2271.20
760.51	2217.95
760.69	2265.05
760.87	2336.73
761.05	2332.64
761.24	2146.27
761.42	2338.78
761.60	2410.46
761.78	2451.42
761.97	2267.10
762.15	2486.23
762.33	2645.98
762.51	2451.42
762.69	2357.21
762.88	2475.99
763.06	2695.13
763.24	2357.21
763.42	2637.78
763.60	2342.88
763.79	2189.28
763.97	2306.01
764.15	2125.79
764.33	2316.25
764.51	2396.12
764.70	2547.67
764.88	2496.47
765.06	2279.39
765.24	2359.26
765.42	2588.63
765.61	2271.20
765.79	2326.49
765.97	2334.68
766.15	2424.80
766.33	2287.58
766.51	2314.20
766.70	2402.27
766.88	2654.17
767.06	2346.97
767.24	2295.77
767.42	2224.09
767.60	2453.47
767.79	2283.49
767.97	2359.26
768.15	2326.49
768.33	2553.82
768.51	2291.68
768.69	2670.55
768.88	2455.51
769.06	2605.02
769.24	2318.30
769.42	2521.05
769.60	2355.16
769.78	2318.30
769.96	2113.50
770.15	2762.71
770.33	2394.08
770.51	2424.80
770.69	2365.40
770.87	2308.06
771.05	2418.65
771.23	2398.17
771.41	2199.52
771.60	2189.28
771.78	2400.22
771.96	2531.29
772.14	2220.00
772.32	2447.32
772.50	2346.97
772.68	2420.70
772.86	2289.63
773.05	2310.11
773.23	2547.67
773.41	2359.26
773.59	2338.78
773.77	2312.16
773.95	2533.34
774.13	2498.52
774.31	2170.85
774.49	2523.10
774.68	2279.39
774.86	2742.23
775.04	2363.36
775.22	2316.25
775.40	2166.75
775.58	2273.25
775.76	2308.06
775.94	2320.35
776.12	2338.78
776.30	2602.97
776.48	2326.49
776.66	2461.66
776.85	2463.71
777.03	2629.59
777.21	2287.58
777.39	2553.82
777.57	2736.09
777.75	2316.25
777.93	2404.32
778.11	2527.19
778.29	2402.27
778.47	2365.40
778.65	2660.31
778.83	2666.46
779.01	2621.40
779.19	2584.54
779.37	2471.90
779.55	2588.63
779.74	2316.25
779.92	2580.44
780.10	2404.32
780.28	2523.10
780.46	2602.97
780.64	2584.54
780.82	2293.72
781.00	2650.07
781.18	2408.41
781.36	2643.93
781.54	2283.49
781.72	2654.17
781.90	2359.26
782.08	2281.44
782.26	2443.23
782.44	2371.55
782.62	2605.02
782.80	2637.78
782.98	2252.77
783.16	2344.92
783.34	2371.55
783.52	2598.87
783.70	2602.97
783.88	2131.94
784.06	2510.81
784.24	2621.40
784.42	2424.80
784.60	2238.43
784.78	2451.42
784.96	2318.30
785.14	2549.72
785.32	2240.48
785.50	2256.86
785.68	2705.37
785.86	2301.92
786.04	2213.85
786.22	2496.47
786.40	2361.31
786.58	2318.30
786.76	2125.79
786.94	2437.08
787.12	2217.95
787.30	2498.52
787.48	2357.21
787.66	2506.71
787.84	2447.32
788.02	2566.10
788.20	2269.15
788.38	2512.86
788.56	2793.43
788.74	2396.12
788.92	2281.44
789.10	2453.47
789.28	2723.80
789.46	2220.00
789.64	2854.87
789.82	2359.26
790.00	2508.76
790.17	2236.38
790.35	2482.14
790.53	2557.91
790.71	2596.82
790.89	2752.47
791.07	2387.93
791.25	2695.13
791.43	2361.31
791.61	2322.40
791.79	2306.01
791.97	2355.16
792.15	2469.85
792.33	2551.77
792.51	2230.24
792.69	2332.64
792.86	2547.67
793.04	2404.32
793.22	2418.65
793.40	2549.72
793.58	2453.47
793.76	2222.05
793.94	2846.68
794.12	2465.75
794.30	2435.03
794.48	2318.30
794.66	2584.54
794.84	2490.33
795.01	2445.27
795.19	2224.09
795.37	2463.71
795.55	2562.01
795.73	2650.07
795.91	2367.45
796.09	2265.05
796.27	2459.61
796.45	2320.35
796.62	2293.72
796.80	2428.89
796.98	2445.27
797.16	2566.10
797.34	2291.68
797.52	2418.65
797.70	2441.18
797.88	2551.77
798.06	2559.96
798.23	3012.56
798.41	2428.89
798.59	2377.69
798.77	2142.18
798.95	2396.12
799.13	2295.77
799.31	2541.53
799.48	2426.84
799.66	2416.60
799.84	2236.38
800.02	2516.95
800.20	2430.94
800.38	3076.05
800.56	2486.23
800.73	2549.72
800.91	2318.30
801.09	2818.00
801.27	2385.88
801.45	2424.80
801.63	2332.64
801.80	2537.43
801.98	2439.13
802.16	2299.87
802.34	2252.77
802.52	2449.37
802.70	2533.34
802.87	2437.08
803.05	2428.89
803.23	2482.14
803.41	2664.41
803.59	2588.63
803.77	2432.99
803.94	2439.13
804.12	2330.59
804.30	2443.23
804.48	2408.41
804.66	2078.69
804.83	2924.50
805.01	2263.01
805.19	2412.51
805.37	2248.67
805.55	2504.67
805.72	2383.84
805.90	2236.38
806.08	2344.92
806.26	2471.90
806.44	2684.89
806.61	2416.60
806.79	2252.77
806.97	2312.16
807.15	2480.09
807.32	2387.93
807.50	2478.04
807.68	2277.34
807.86	2494.43
808.04	2250.72
808.21	2494.43
808.39	2605.02
808.57	2430.94
808.75	2385.88
808.92	2320.35
809.10	2531.29
809.28	2521.05
809.46	2510.81
809.63	2379.74
809.81	2379.74
809.99	2635.74
810.17	2332.64
810.35	2306.01
810.52	2355.16
810.70	2492.38
810.88	2500.57
811.05	2609.11
811.23	2574.30
811.41	2852.82
811.59	2400.22
811.76	2267.10
811.94	2469.85
812.12	2473.95
812.30	2326.49
812.47	2389.98
812.65	2322.40
812.83	2711.51
813.01	2469.85
813.18	2269.15
813.36	2514.91
813.54	2748.37
813.71	2217.95
813.89	2297.82
814.07	2662.36
814.25	2426.84
814.42	2193.37
814.60	2342.88
814.78	2416.60
814.95	2697.17
815.13	2297.82
815.31	2435.03
815.49	2615.26
815.66	2539.48
815.84	2109.41
816.02	2258.91
816.19	2516.95
816.37	2420.70
816.55	2277.34
816.72	2557.91
816.90	2394.08
817.08	2406.36
817.25	2654.17
817.43	2156.51
817.61	2529.24
817.78	2498.52
817.96	2355.16
818.14	2279.39
818.32	2355.16
818.49	2529.24
818.67	2121.70
818.85	2484.19
819.02	2529.24
819.20	2426.84
819.38	2324.44
819.55	2363.36
819.73	2777.05
819.90	2738.13
820.08	2084.83
820.26	2369.50
820.43	2729.94
820.61	2510.81
820.79	2244.57
820.96	2123.74
821.14	2203.61
821.32	2482.14
821.49	2209.76
821.67	2244.57
821.85	2381.79
822.02	2263.01
822.20	2398.17
822.37	2193.37
822.55	2457.56
822.73	2666.46
822.90	2394.08
823.08	2330.59
823.26	2293.72
823.43	2480.09
823.61	2207.71
823.78	2379.74
823.96	2572.25
824.14	2670.55
824.31	2508.76
824.49	2324.44
824.67	2656.22
824.84	2494.43
825.02	2279.39
825.19	2187.23
825.37	2801.62
825.55	2420.70
825.72	2553.82
825.90	2682.84
826.07	2490.33
826.25	2686.94
826.43	2052.06
826.60	2396.12
826.78	2392.03
826.95	2529.24
827.13	2244.57
827.30	2443.23
827.48	2545.63
827.66	2445.27
827.83	2269.15
828.01	2459.61
828.18	2363.36
828.36	2445.27
828.53	2273.25
828.71	2215.90
828.89	2488.28
829.06	2527.19
829.24	2228.19
829.41	2285.53
829.59	2342.88
829.76	2435.03
829.94	2217.95
830.11	2355.16
830.29	2383.84
830.47	2555.86
830.64	2293.72
830.82	2516.95
830.99	2422.75
831.17	2504.67
831.34	2551.77
831.52	2346.97
831.69	2416.60
831.87	2500.57
832.04	2367.45
832.22	2232.29
832.40	2381.79
832.57	2541.53
832.75	2150.37
832.92	2166.75
833.10	2527.19
833.27	2623.45
833.45	2502.62
833.62	2252.77
833.80	2543.58
833.97	2537.43
834.15	2580.44
834.32	2265.05
834.50	2326.49
834.67	2854.87
834.85	2297.82
835.02	2392.03
835.20	2586.58
835.37	2942.93
835.55	2353.12
835.72	2516.95
835.90	2322.40
836.07	2654.17
836.25	2486.23
836.42	2332.64
836.60	2416.60
836.77	2621.40
836.95	2557.91
837.12	2514.91
837.30	2486.23
837.47	2365.40
837.65	2136.03
837.82	2271.20
838.00	2349.02
838.17	2439.13
838.34	2166.75
838.52	2322.40
838.69	2658.26
838.87	2506.71
839.04	2289.63
839.22	2117.60
839.39	2430.94
839.57	2508.76
839.74	2283.49
839.92	2252.77
840.09	2385.88
840.26	2688.98
840.44	2265.05
840.61	2455.51
840.79	2260.96
840.96	2179.04
841.14	2420.70
841.31	2275.29
841.49	2322.40
841.66	2488.28
841.83	2269.15
842.01	2564.06
842.18	2389.98
842.36	2523.10
842.53	2306.01
842.71	2469.85
842.88	2242.53
843.05	2414.56
843.23	2318.30
843.40	2183.13
843.58	2676.70
843.75	2547.67
843.92	2183.13
844.10	2228.19
844.27	2377.69
844.45	2664.41
844.62	2258.91
844.80	2455.51
844.97	2355.16
845.14	2484.19
845.32	2222.05
845.49	2140.13
845.66	2488.28
845.84	2353.12
846.01	2385.88
846.19	2308.06
846.36	2627.54
846.53	2746.33
846.71	2105.31
846.88	2320.35
847.06	2379.74
847.23	2353.12
847.40	2295.77
847.58	2457.56
847.75	2543.58
847.92	2899.92
848.10	2306.01
848.27	2418.65
848.45	2527.19
848.62	2559.96
848.79	2052.06
848.97	2416.60
849.14	2404.32
849.31	2271.20
849.49	2373.60
849.66	2213.85
849.83	2353.12
850.01	2674.65
850.18	2389.98
850.35	2308.06
850.53	2772.95
850.70	2578.39
850.87	2408.41
851.05	2252.77
851.22	2625.50
851.39	2895.83
851.57	2195.42
851.74	2232.29
851.91	2289.63
852.09	2432.99
852.26	2301.92
852.43	2222.05
852.61	2494.43
852.78	2385.88
852.95	2576.34
853.13	2166.75
853.30	2686.94
853.47	2545.63
853.65	2451.42
853.82	2222.05
853.99	2482.14
854.16	2531.29
854.34	2152.42
854.51	2076.64
854.68	2385.88
854.86	2549.72
855.03	2258.91
855.20	2211.81
855.38	2523.10
855.55	2512.86
855.72	1966.05
855.89	2017.25
856.07	2629.59
856.24	2443.23
856.41	2131.94
856.59	2404.32
856.76	2555.86
856.93	2707.41
857.10	2148.32
857.28	2154.46
857.45	2320.35
857.62	2533.34
857.79	2062.30
857.97	1964.00
858.14	2506.71
858.31	2392.03
858.48	2097.12
858.66	2209.76
858.83	2676.70
859.00	2506.71
859.17	2121.70
859.35	2234.33
859.52	2582.49
859.69	2576.34
859.86	2138.08
860.04	2074.59
860.21	2402.27
860.38	2715.61
860.55	2021.35
860.73	2244.57
860.90	2232.29
861.07	2777.05
861.24	2150.37
861.42	2123.74
861.59	2402.27
861.76	2428.89
861.93	2090.98
862.10	2129.89
862.28	2729.94
862.45	2547.67
862.62	1994.72
862.79	2371.55
862.96	2342.88
863.14	2508.76
863.31	2117.60
863.48	2514.91
863.65	2379.74
863.83	2613.21
864.00	2349.02
864.17	1984.48
864.34	2617.30
864.51	2424.80
864.68	2084.83
864.86	2396.12
865.03	2488.28
865.20	2529.24
865.37	2293.72
865.54	2125.79
865.72	2531.29
865.89	2535.39
866.06	2109.41
866.23	2490.33
866.40	2619.35
866.57	2779.09
866.75	2318.30
866.92	2078.69
867.09	2484.19
867.26	2621.40
867.43	2357.21
867.60	2142.18
867.78	2435.03
867.95	2772.95
868.12	2289.63
868.29	1970.15
868.46	2566.10
868.63	2621.40
868.81	2199.52
868.98	2154.46
869.15	2555.86
869.32	2740.18
869.49	2156.51
869.66	2226.14
869.83	2566.10
870.00	2549.72
870.18	2164.70
870.35	2187.23
870.52	2416.60
870.69	2731.99
870.86	2297.82
871.03	2138.08
871.20	2422.75
871.37	2502.62
871.55	2121.70
871.72	2027.49
871.89	2510.81
872.06	2555.86
872.23	2250.72
872.40	2168.80
872.57	2688.98
872.74	2547.67
872.91	2027.49
873.09	2133.98
873.26	2719.70
873.43	2217.95
873.60	2213.85
873.77	2226.14
873.94	2592.73
874.11	2457.56
874.28	2197.47
874.45	2035.68
874.62	2512.86
874.79	2598.87
874.97	2316.25
875.14	2150.37
875.31	2514.91
875.48	2400.22
875.65	2148.32
875.82	2357.21
875.99	2414.56
876.16	2555.86
876.33	2060.26
876.50	2570.20
876.67	2932.69
876.84	2531.29
877.01	2125.79
877.18	2387.93
877.35	2494.43
877.53	2457.56
877.70	2326.49
877.87	2265.05
878.04	2445.27
878.21	2680.79
878.38	2097.12
878.55	2172.89
878.72	2484.19
878.89	2869.20
879.06	2260.96
879.23	2353.12
879.40	2514.91
879.57	2709.46
879.74	2074.59
879.91	2338.78
880.08	2420.70
880.25	2533.34
880.42	2058.21
880.59	2170.85
880.76	2482.14
880.93	2672.60
881.10	2174.94
881.27	2236.38
881.44	2369.50
881.61	2813.91
881.78	2084.83
881.95	2322.40
882.12	2461.66
882.29	2564.06
882.46	2166.75
882.63	2271.20
882.80	2545.63
882.97	2598.87
883.14	2357.21
883.31	2230.24
883.48	2539.48
883.65	2613.21
883.82	2068.45
883.99	2273.25
884.16	2922.45
884.33	2727.89
884.50	2191.33
884.67	2142.18
884.84	2830.29
885.01	2457.56
885.18	2269.15
885.35	2037.73
885.52	2832.34
885.69	2549.72
885.86	2248.67
886.03	2002.91
886.20	2922.45
886.37	2547.67
886.54	2310.11
886.71	1988.58
886.87	2858.96
887.04	2525.15
887.21	2260.96
887.38	2103.26
887.55	2336.73
887.72	2455.51
887.89	2265.05
888.06	2113.50
888.23	2473.95
888.40	2797.53
888.57	2193.37
888.74	2273.25
888.91	2506.71
889.08	2308.06
889.25	2230.24
889.42	2146.27
889.58	2750.42
889.75	2797.53
889.92	2172.89
890.09	2330.59
890.26	3655.62
890.43	2459.61
890.60	2193.37
890.77	2060.26
890.94	2473.95
891.11	2400.22
891.28	1959.91
891.44	2258.91
891.61	2580.44
891.78	2318.30
891.95	2246.62
892.12	2308.06
892.29	2394.08
892.46	2764.76
892.63	2314.20
892.80	2099.17
892.96	2543.58
893.13	2557.91
893.30	2385.88
893.47	2326.49
893.64	2750.42
893.81	2269.15
893.98	2076.64
894.15	2211.81
894.31	2445.27
894.48	2410.46
894.65	2170.85
894.82	2627.54
894.99	2656.22
895.16	2484.19
895.33	2541.53
895.49	2263.01
895.66	2453.47
895.83	2537.43
896.00	1976.29
896.17	2138.08
896.34	2430.94
896.50	2514.91
896.67	2031.58
896.84	2115.55
897.01	2498.52
897.18	2377.69
897.35	2133.98
897.51	2213.85
897.68	2605.02
897.85	2799.57
898.02	2015.20
898.19	2066.40
898.36	2430.94
898.52	2846.68
898.69	2537.43
898.86	2467.80
899.03	2283.49
899.20	2529.24
899.36	2086.88
899.53	2131.94
899.70	2306.01
899.87	2494.43
900.04	2119.65
900.20	2547.67
900.37	2314.20
900.54	2443.23
900.71	2127.84
900.88	2377.69
901.04	2389.98
901.21	2482.14
901.38	2109.41
901.55	2109.41
901.72	2316.25
901.88	2359.26
902.05	2133.98
902.22	2105.31
902.39	2559.96
902.55	2435.03
902.72	2050.02
902.89	2127.84
903.06	2387.93
903.23	2404.32
903.39	2195.42
903.56	2162.66
903.73	2676.70
903.90	2324.44
904.06	2355.16
904.23	2201.57
904.40	2559.96
904.57	2582.49
904.73	2291.68
904.90	2441.18
905.07	2469.85
905.24	2283.49
905.40	2113.50
905.57	2168.80
905.74	2709.46
905.91	2140.13
906.07	2189.28
906.24	2394.08
906.41	2527.19
906.57	2691.03
906.74	2185.18
906.91	2248.67
907.08	2469.85
907.24	2619.35
907.41	2355.16
907.58	2129.89
907.75	2580.44
907.91	2449.37
908.08	2443.23
908.25	2371.55
908.41	2654.17
908.58	2791.38
908.75	2123.74
908.91	2207.71
909.08	2519.00
909.25	2457.56
909.42	2252.77
>>>>>End Processed Spectral Data<<<<<
