SpectraSuite Data File
++++++++++++++++++++++++++++++++++++
Date: Fri Feb 07 19:11:54 EST 2020
User: BHM
Dark Spectrum Present: No
Reference Spectrum Present: No
Number of Sampled Component Spectra: 1
Spectrometers: USB4H07074
Integration Time (usec): 1000000 (USB4H07074)
Spectra Averaged: 1 (USB4H07074)
Boxcar Smoothing: 0 (USB4H07074)
Correct for Electrical Dark: No (USB4H07074)
Strobe/Lamp Enabled: No (USB4H07074)
Correct for Detector Non-linearity: No (USB4H07074)
Correct for Stray Light: No (USB4H07074)
Number of Pixels in Processed Spectrum: 3648
>>>>>Begin Processed Spectral Data<<<<<
194.67	1294.32
194.89	1294.32
195.11	1294.32
195.33	1290.22
195.55	1202.16
195.77	2330.59
195.99	2443.23
196.21	1900.52
196.42	2080.74
196.64	2287.58
196.86	2330.59
197.08	2121.70
197.30	2222.05
197.52	2093.02
197.74	2015.20
197.96	1865.70
198.18	2041.82
198.40	2271.20
198.61	2455.51
198.83	2383.84
199.05	2121.70
199.27	2293.72
199.49	2566.10
199.71	2402.27
199.93	2193.37
200.15	2482.14
200.37	2404.32
200.58	1970.15
200.80	2508.76
201.02	2443.23
201.24	2363.36
201.46	2332.64
201.68	2273.25
201.90	2289.63
202.12	2686.94
202.34	2443.23
202.55	2602.97
202.77	2330.59
202.99	2369.50
203.21	2367.45
203.43	2422.75
203.65	2306.01
203.87	2402.27
204.09	2424.80
204.30	2660.31
204.52	2725.85
204.74	2418.65
204.96	2334.68
205.18	2326.49
205.40	2459.61
205.62	2209.76
205.84	2572.25
206.05	2363.36
206.27	2502.62
206.49	2473.95
206.71	2232.29
206.93	2371.55
207.15	2594.78
207.37	2617.30
207.58	2375.64
207.80	2172.89
208.02	2346.97
208.24	2351.07
208.46	2113.50
208.68	2236.38
208.90	2645.98
209.11	2467.80
209.33	2095.07
209.55	2273.25
209.77	2252.77
209.99	2289.63
210.21	2283.49
210.43	2240.48
210.64	2555.86
210.86	2424.80
211.08	1951.71
211.30	2500.57
211.52	2488.28
211.74	2357.21
211.95	2301.92
212.17	2523.10
212.39	2416.60
212.61	2592.73
212.83	2258.91
213.05	2121.70
213.26	2373.60
213.48	2373.60
213.70	2109.41
213.92	2244.57
214.14	2533.34
214.36	2275.29
214.57	2154.46
214.79	2455.51
215.01	2539.48
215.23	2590.68
215.45	2379.74
215.67	2160.61
215.88	2539.48
216.10	2627.54
216.32	2021.35
216.54	2086.88
216.76	2457.56
216.97	2414.56
217.19	2156.51
217.41	2211.81
217.63	2500.57
217.85	2660.31
218.07	2103.26
218.28	2559.96
218.50	2588.63
218.72	2457.56
218.94	2193.37
219.16	2404.32
219.37	2312.16
219.59	2541.53
219.81	2045.92
220.03	2211.81
220.25	2463.71
220.46	2658.26
220.68	2129.89
220.90	2133.98
221.12	2375.64
221.34	2326.49
221.55	2301.92
221.77	2052.06
221.99	2306.01
222.21	2465.75
222.43	2592.73
222.64	2009.06
222.86	2717.65
223.08	2353.12
223.30	2281.44
223.52	2338.78
223.73	2498.52
223.95	2801.62
224.17	2234.33
224.39	2209.76
224.60	2471.90
224.82	2445.27
225.04	2232.29
225.26	2191.33
225.48	2174.94
225.69	2596.82
225.91	2103.26
226.13	2521.05
226.35	2510.81
226.56	2455.51
226.78	2162.66
227.00	2127.84
227.22	2502.62
227.44	2514.91
227.65	2070.50
227.87	2248.67
228.09	2271.20
228.31	2576.34
228.52	2095.07
228.74	2142.18
228.96	2588.63
229.18	2295.77
229.39	2480.09
229.61	2131.94
229.83	2244.57
230.05	2355.16
230.26	2707.41
230.48	2279.39
230.70	2437.08
230.92	2324.44
231.13	2248.67
231.35	2273.25
231.57	2328.54
231.79	2521.05
232.00	2228.19
232.22	2011.11
232.44	2465.75
232.66	2559.96
232.87	2224.09
233.09	2174.94
233.31	2562.01
233.53	2385.88
233.74	2392.03
233.96	2455.51
234.18	2371.55
234.40	2486.23
234.61	2150.37
234.83	2142.18
235.05	2562.01
235.27	2449.37
235.48	2203.61
235.70	2346.97
235.92	2443.23
236.14	2475.99
236.35	2166.75
236.57	2455.51
236.79	2500.57
237.00	2432.99
237.22	2224.09
237.44	2412.51
237.66	2295.77
237.87	2531.29
238.09	2054.11
238.31	1931.23
238.53	2342.88
238.74	2404.32
238.96	2140.13
239.18	2197.47
239.39	2310.11
239.61	2482.14
239.83	2244.57
240.05	2154.46
240.26	2240.48
240.48	2451.42
240.70	2430.94
240.91	2465.75
241.13	2336.73
241.35	2123.74
241.56	2207.71
241.78	2242.53
242.00	2453.47
242.22	2553.82
242.43	2506.71
242.65	2533.34
242.87	2412.51
243.08	2535.39
243.30	2201.57
243.52	2269.15
243.73	2850.77
243.95	2645.98
244.17	2199.52
244.39	2076.64
244.60	2428.89
244.82	2465.75
245.04	2095.07
245.25	1968.10
245.47	2392.03
245.69	2299.87
245.90	2125.79
246.12	2004.96
246.34	2625.50
246.55	2543.58
246.77	2445.27
246.99	2412.51
247.20	2326.49
247.42	2764.76
247.64	2009.06
247.86	2013.15
248.07	2590.68
248.29	2410.46
248.51	2154.46
248.72	2346.97
248.94	2535.39
249.16	2371.55
249.37	2076.64
249.59	2502.62
249.81	2406.36
250.02	2381.79
250.24	2443.23
250.46	2367.45
250.67	2510.81
250.89	2320.35
251.11	2041.82
251.32	2226.14
251.54	2459.61
251.76	2426.84
251.97	2183.13
252.19	2289.63
252.40	2328.54
252.62	2527.19
252.84	2426.84
253.05	2336.73
253.27	2723.80
253.49	2400.22
253.70	2199.52
253.92	2621.40
254.14	2600.92
254.35	2306.01
254.57	2113.50
254.79	2127.84
255.00	2772.95
255.22	2535.39
255.44	2318.30
255.65	2215.90
255.87	2320.35
256.08	2414.56
256.30	2105.31
256.52	2226.14
256.73	2432.99
256.95	2449.37
257.17	1984.48
257.38	2467.80
257.60	2490.33
257.82	2363.36
258.03	2072.54
258.25	2133.98
258.46	2279.39
258.68	2506.71
258.90	2201.57
259.11	2080.74
259.33	2699.22
259.55	2308.06
259.76	2424.80
259.98	2156.51
260.19	2121.70
260.41	2361.31
260.63	2144.22
260.84	2095.07
261.06	2463.71
261.27	2529.24
261.49	2166.75
261.71	2273.25
261.92	2330.59
262.14	2523.10
262.35	2158.56
262.57	2019.30
262.79	2338.78
263.00	2506.71
263.22	2119.65
263.44	2238.43
263.65	2437.08
263.87	2465.75
264.08	2203.61
264.30	2392.03
264.52	2355.16
264.73	2648.02
264.95	2084.83
265.16	2355.16
265.38	2334.68
265.59	2435.03
265.81	2381.79
266.03	2236.38
266.24	2416.60
266.46	2377.69
266.67	2365.40
266.89	2537.43
267.11	2400.22
267.32	2320.35
267.54	2271.20
267.75	2363.36
267.97	2236.38
268.19	2267.10
268.40	2078.69
268.62	2052.06
268.83	2521.05
269.05	2318.30
269.26	2404.32
269.48	2275.29
269.70	2248.67
269.91	2615.26
270.13	2269.15
270.34	2324.44
270.56	2248.67
270.77	2256.86
270.99	2015.20
271.21	2285.53
271.42	2265.05
271.64	2596.82
271.85	2232.29
272.07	2404.32
272.28	2625.50
272.50	2508.76
272.71	2521.05
272.93	2359.26
273.15	2269.15
273.36	2371.55
273.58	2101.22
273.79	2238.43
274.01	2559.96
274.22	2723.80
274.44	2131.94
274.65	2189.28
274.87	2189.28
275.09	2412.51
275.30	2072.54
275.52	2121.70
275.73	2478.04
275.95	2533.34
276.16	2484.19
276.38	2252.77
276.59	2592.73
276.81	2629.59
277.02	2387.93
277.24	2019.30
277.45	2838.48
277.67	2527.19
277.89	2189.28
278.10	2447.32
278.32	2293.72
278.53	2332.64
278.75	2150.37
278.96	2342.88
279.18	2375.64
279.39	2334.68
279.61	2162.66
279.82	2312.16
280.04	2355.16
280.25	2297.82
280.47	2060.26
280.68	2125.79
280.90	2306.01
281.11	2144.22
281.33	2150.37
281.54	2088.93
281.76	2383.84
281.97	2232.29
282.19	2191.33
282.40	2437.08
282.62	2301.92
282.83	2639.83
283.05	2148.32
283.27	2353.12
283.48	2095.07
283.70	2459.61
283.91	2332.64
284.13	2125.79
284.34	2283.49
284.56	2475.99
284.77	2195.42
284.99	2312.16
285.20	2287.58
285.42	2502.62
285.63	2435.03
285.84	2346.97
286.06	2359.26
286.27	2172.89
286.49	2166.75
286.70	2203.61
286.92	2299.87
287.13	2289.63
287.35	2211.81
287.56	2351.07
287.78	2631.64
287.99	2164.70
288.21	2095.07
288.42	2727.89
288.64	2539.48
288.85	2559.96
289.07	2398.17
289.28	2320.35
289.50	2283.49
289.71	2316.25
289.93	2117.60
290.14	2039.78
290.36	2564.06
290.57	2179.04
290.79	2459.61
291.00	2353.12
291.22	2430.94
291.43	2879.44
291.64	2271.20
291.86	2328.54
292.07	2531.29
292.29	2623.45
292.50	2320.35
292.72	2142.18
292.93	2705.37
293.15	2654.17
293.36	2322.40
293.58	2326.49
293.79	2291.68
294.00	2574.30
294.22	2217.95
294.43	2271.20
294.65	2858.96
294.86	2594.78
295.08	2555.86
295.29	2895.83
295.51	2639.83
295.72	2754.52
295.94	2346.97
296.15	1980.39
296.36	2375.64
296.58	2412.51
296.79	2379.74
297.01	2289.63
297.22	2437.08
297.44	2570.20
297.65	2506.71
297.86	2627.54
298.08	2455.51
298.29	2691.03
298.51	2357.21
298.72	2363.36
298.94	2373.60
299.15	2566.10
299.36	2408.41
299.58	2283.49
299.79	2748.37
300.01	2535.39
300.22	2383.84
300.44	2140.13
300.65	2502.62
300.86	2306.01
301.08	2371.55
301.29	2287.58
301.51	2789.33
301.72	2893.78
301.93	2404.32
302.15	2338.78
302.36	2799.57
302.58	2598.87
302.79	2519.00
303.01	2306.01
303.22	2596.82
303.43	2740.18
303.65	2314.20
303.86	2435.03
304.08	2576.34
304.29	2488.28
304.50	2463.71
304.72	2162.66
304.93	2367.45
305.15	2916.31
305.36	2258.91
305.57	2445.27
305.79	2269.15
306.00	2656.22
306.22	2516.95
306.43	2461.66
306.64	2523.10
306.86	2856.92
307.07	2506.71
307.28	2271.20
307.50	2523.10
307.71	2953.17
307.93	2250.72
308.14	2359.26
308.35	2461.66
308.57	2643.93
308.78	2445.27
309.00	2455.51
309.21	2639.83
309.42	2584.54
309.64	2365.40
309.85	2197.47
310.06	2547.67
310.28	2588.63
310.49	2367.45
310.71	2058.21
310.92	2668.50
311.13	2527.19
311.35	2275.29
311.56	2533.34
311.77	2637.78
311.99	2641.88
312.20	2398.17
312.41	2584.54
312.63	2707.41
312.84	2596.82
313.06	2318.30
313.27	2510.81
313.48	2471.90
313.70	2555.86
313.91	2443.23
314.12	2222.05
314.34	2705.37
314.55	2529.24
314.76	2516.95
314.98	2510.81
315.19	2535.39
315.40	2650.07
315.62	2496.47
315.83	2729.94
316.04	2838.48
316.26	2697.17
316.47	2543.58
316.68	2449.37
316.90	2383.84
317.11	2570.20
317.32	2607.06
317.54	2510.81
317.75	2527.19
317.96	2543.58
318.18	2283.49
318.39	2461.66
318.60	2480.09
318.82	2379.74
319.03	2222.05
319.24	2361.31
319.46	2820.05
319.67	2727.89
319.88	2265.05
320.10	2447.32
320.31	2428.89
320.52	2506.71
320.74	2285.53
320.95	2127.84
321.16	2297.82
321.38	2789.33
321.59	2424.80
321.80	2179.04
322.02	2455.51
322.23	2914.26
322.44	2451.42
322.65	2142.18
322.87	2529.24
323.08	2512.86
323.29	2506.71
323.51	2570.20
323.72	2666.46
323.93	2594.78
324.15	2346.97
324.36	2414.56
324.57	2553.82
324.78	2600.92
325.00	2717.65
325.21	2369.50
325.42	2473.95
325.64	2537.43
325.85	2412.51
326.06	2228.19
326.28	2400.22
326.49	2449.37
326.70	2367.45
326.91	2510.81
327.13	2600.92
327.34	2582.49
327.55	2547.67
327.77	2326.49
327.98	2514.91
328.19	2555.86
328.40	2377.69
328.62	2189.28
328.83	2535.39
329.04	2504.67
329.25	2195.42
329.47	2344.92
329.68	2500.57
329.89	2566.10
330.11	2332.64
330.32	2283.49
330.53	2394.08
330.74	2631.64
330.96	2375.64
331.17	2271.20
331.38	2703.32
331.59	2443.23
331.81	2351.07
332.02	2201.57
332.23	2512.86
332.44	2432.99
332.66	2580.44
332.87	2125.79
333.08	2521.05
333.29	2648.02
333.51	2723.80
333.72	2242.53
333.93	2355.16
334.14	2686.94
334.36	2596.82
334.57	2338.78
334.78	2635.74
334.99	2754.52
335.21	2545.63
335.42	2383.84
335.63	2656.22
335.84	2568.15
336.06	2392.03
336.27	2289.63
336.48	2355.16
336.69	2695.13
336.91	2381.79
337.12	2478.04
337.33	2568.15
337.54	2383.84
337.75	2715.61
337.97	2189.28
338.18	2654.17
338.39	2473.95
338.60	2201.57
338.82	2684.89
339.03	2478.04
339.24	2428.89
339.45	2408.41
339.66	2185.18
339.88	2807.77
340.09	2402.27
340.30	2375.64
340.51	2418.65
340.73	2535.39
340.94	2942.93
341.15	2355.16
341.36	2387.93
341.57	2490.33
341.79	2654.17
342.00	2371.55
342.21	2252.77
342.42	2174.94
342.63	2594.78
342.85	2531.29
343.06	2404.32
343.27	2297.82
343.48	2420.70
343.69	2285.53
343.91	2502.62
344.12	2645.98
344.33	2326.49
344.54	2686.94
344.75	2236.38
344.97	2375.64
345.18	2293.72
345.39	2396.12
345.60	2328.54
345.81	2441.18
346.02	2383.84
346.24	2602.97
346.45	2424.80
346.66	2422.75
346.87	2525.15
347.08	2121.70
347.30	2248.67
347.51	2598.87
347.72	2426.84
347.93	2424.80
348.14	2492.38
348.35	2363.36
348.57	2344.92
348.78	2011.11
348.99	2213.85
349.20	2265.05
349.41	2803.67
349.62	2897.88
349.84	2535.39
350.05	2445.27
350.26	2355.16
350.47	2287.58
350.68	2383.84
350.89	2469.85
351.11	2506.71
351.32	2457.56
351.53	2404.32
351.74	2555.86
351.95	2781.14
352.16	2428.89
352.37	2291.68
352.59	2412.51
352.80	2574.30
353.01	2236.38
353.22	2490.33
353.43	2574.30
353.64	2519.00
353.86	2248.67
354.07	2469.85
354.28	2375.64
354.49	2506.71
354.70	2414.56
354.91	2248.67
355.12	2629.59
355.33	2662.36
355.55	2187.23
355.76	2490.33
355.97	2506.71
356.18	2580.44
356.39	2314.20
356.60	2187.23
356.81	2537.43
357.03	2492.38
357.24	2432.99
357.45	2598.87
357.66	2465.75
357.87	2584.54
358.08	2447.32
358.29	2412.51
358.50	2531.29
358.71	2678.74
358.93	2510.81
359.14	2314.20
359.35	3330.00
359.56	2527.19
359.77	2684.89
359.98	2545.63
360.19	2844.63
360.40	2961.36
360.61	3010.51
360.83	2969.55
361.04	3192.78
361.25	3229.65
361.46	3231.69
361.67	3022.80
361.88	3383.24
362.09	3420.11
362.30	3731.40
362.51	3856.33
362.72	4077.51
362.94	4655.03
363.15	4671.42
363.36	4966.32
363.57	4818.87
363.78	4902.84
363.99	5087.15
364.20	4681.66
364.41	4763.58
364.62	4816.82
364.83	4726.71
365.04	4423.61
365.26	4558.78
365.47	4431.80
365.68	4239.30
365.89	4202.43
366.10	3975.11
366.31	4597.69
366.52	3807.17
366.73	4081.60
366.94	3891.14
367.15	3348.43
367.36	3200.98
367.57	3110.86
367.78	2959.31
367.99	2930.64
368.21	2740.18
368.42	2801.62
368.63	2861.01
368.84	3020.75
369.05	2875.35
369.26	2740.18
369.47	2863.06
369.68	2987.99
369.89	2623.45
370.10	2912.21
370.31	3295.18
370.52	2936.79
370.73	2555.86
370.94	2899.92
371.15	3008.47
371.36	2957.27
371.57	2711.51
371.78	2822.10
371.99	2908.12
372.20	3393.48
372.42	3119.06
372.63	2826.20
372.84	2904.02
373.05	2926.55
373.26	2736.09
373.47	3041.23
373.68	2891.73
373.89	2940.88
374.10	2654.17
374.31	3190.74
374.52	2959.31
374.73	2918.36
374.94	2998.23
375.15	3207.12
375.36	2947.03
375.57	2998.23
375.78	2881.49
375.99	2996.18
376.20	2922.45
376.41	3305.42
376.62	3219.41
376.83	3444.68
377.04	3389.39
377.25	3741.64
377.46	3680.20
377.67	3758.02
377.88	4003.78
378.09	4530.11
378.30	3948.48
378.51	4364.22
378.72	4317.12
378.93	4675.51
379.14	4315.07
379.35	4431.80
379.56	4822.97
379.77	5087.15
379.98	4857.78
380.19	4945.84
380.40	4822.97
380.61	4882.36
380.82	4827.06
381.03	4997.04
381.24	4997.04
381.45	4583.35
381.66	4644.79
381.87	4562.87
382.08	4575.16
382.29	4517.82
382.50	4413.37
382.71	4542.39
382.92	4302.78
383.13	4460.48
383.34	3983.30
383.55	3719.11
383.76	3809.22
383.97	3880.90
384.18	3852.23
384.39	3817.41
384.60	3817.41
384.81	3637.19
385.02	3588.04
385.23	3653.58
385.44	3536.84
385.65	4073.41
385.86	3629.00
386.07	3325.90
386.28	3375.05
386.49	3155.92
386.70	3227.60
386.91	3319.76
387.11	3491.79
387.32	3217.36
387.53	3219.41
387.74	3405.77
387.95	3432.40
388.16	3270.61
388.37	3667.91
388.58	3551.18
388.79	3315.66
389.00	3489.74
389.21	3385.29
389.42	3135.44
389.63	3069.91
389.84	3686.34
390.05	3299.28
390.26	3233.74
390.47	3188.69
390.68	3342.28
390.89	3096.53
391.09	3387.34
391.30	3207.12
391.51	3598.28
391.72	3106.77
391.93	3323.85
392.14	3381.20
392.35	3231.69
392.56	3598.28
392.77	3186.64
392.98	3309.52
393.19	3442.64
393.40	3547.08
393.61	3274.70
393.82	3643.34
394.02	3520.46
394.23	3475.40
394.44	3395.53
394.65	3614.66
394.86	3495.88
395.07	3547.08
395.28	3286.99
395.49	3391.44
395.70	3641.29
395.91	3741.64
396.12	3463.12
396.32	3821.51
396.53	3778.50
396.74	3774.41
396.95	3796.93
397.16	4302.78
397.37	3930.05
397.58	4247.49
397.79	3782.60
398.00	4147.14
398.21	4380.61
398.41	4257.73
398.62	4261.82
398.83	4282.30
399.04	5066.67
399.25	4595.64
399.46	4487.10
399.67	4513.72
399.88	4796.34
400.09	4736.95
400.29	5009.33
400.50	5062.58
400.71	4675.51
400.92	4951.99
401.13	4995.00
401.34	5314.48
401.55	5068.72
401.76	5371.82
401.96	5195.70
402.17	5636.01
402.38	5633.96
402.59	5871.53
402.80	5603.24
403.01	6166.43
403.22	6279.07
403.43	6528.92
403.63	6119.33
403.84	6774.68
404.05	6967.19
404.26	6987.67
404.47	7131.03
404.68	7446.41
404.89	7686.03
405.09	7753.61
405.30	7911.30
405.51	8333.18
405.72	9011.06
405.93	9111.41
406.14	9254.77
406.35	10008.42
406.55	10166.12
406.76	10389.35
406.97	10839.90
407.18	11155.29
407.39	11736.91
407.60	12037.96
407.80	12375.88
408.01	13074.23
408.22	13166.39
408.43	13463.35
408.64	14219.05
408.85	15013.66
409.05	15386.39
409.26	16080.65
409.47	16602.88
409.68	16873.21
409.89	17475.32
410.10	18368.23
410.30	18943.71
410.51	19668.69
410.72	20317.90
410.93	20891.33
411.14	21288.64
411.35	22324.91
411.55	22918.82
411.76	23660.18
411.97	24092.30
412.18	25742.97
412.39	25880.18
412.59	26513.00
412.80	27582.04
413.01	28925.51
413.22	29185.60
413.43	30055.99
413.63	30596.65
413.84	31223.33
414.05	32212.50
414.26	33041.93
414.47	34360.82
414.67	34604.53
414.88	35646.94
415.09	36541.91
415.30	37178.82
415.51	38467.00
415.71	38860.21
415.92	39919.01
416.13	40189.34
416.34	40830.35
416.55	41874.82
416.75	42585.46
416.96	43162.99
417.17	44234.08
417.38	45184.33
417.59	45589.83
417.79	46007.62
418.00	47170.86
418.21	48424.22
418.42	48307.49
418.62	49437.97
418.83	50287.87
419.04	50517.25
419.25	51137.78
419.46	51944.68
419.66	52802.78
419.87	53408.98
420.08	54019.27
420.29	53552.33
420.49	54650.05
420.70	55620.78
420.91	55471.28
421.12	55915.69
421.32	56196.26
421.53	57476.24
421.74	57777.29
421.95	57371.80
422.15	58188.94
422.36	58700.93
422.57	59210.87
422.78	58596.48
422.98	59901.04
423.19	60421.22
423.40	59618.42
423.61	60435.56
423.81	62014.54
424.02	60968.03
424.23	61949.01
424.44	62102.60
424.64	61469.78
424.85	62016.59
425.06	62391.37
425.27	61762.64
425.47	62979.14
425.68	62321.74
425.89	63255.61
426.10	63265.85
426.30	63241.28
426.51	62915.65
426.72	63765.56
426.92	63976.50
427.13	63810.61
427.34	63722.55
427.55	63824.95
427.75	64556.07
427.96	63992.88
428.17	65270.81
428.38	64443.43
428.58	64332.84
428.79	64465.96
429.00	64336.94
429.20	64724.00
429.41	64312.36
429.62	64160.81
429.82	64103.47
430.03	64717.86
430.24	64705.57
430.45	64685.09
430.65	65229.85
430.86	65483.80
431.07	64777.25
431.27	65123.36
431.48	65328.16
431.69	64594.98
431.90	64592.93
432.10	64381.99
432.31	64515.11
432.52	64736.29
432.72	65250.33
432.93	65385.50
433.14	64433.19
433.34	65125.41
433.55	64234.54
433.76	64760.87
433.96	65049.63
434.17	64957.47
434.38	65125.41
434.58	65127.45
434.79	64648.23
435.00	64422.95
435.21	64771.11
435.41	65129.50
435.62	64336.94
435.83	65123.36
436.03	63722.55
436.24	64875.55
436.45	64322.60
436.65	63886.39
436.86	64750.63
437.07	64220.20
437.27	64492.58
437.48	65012.77
437.69	64560.17
437.89	64767.01
438.10	63788.08
438.31	64943.14
438.51	64453.67
438.72	64345.13
438.92	64056.37
439.13	63532.09
439.34	64115.76
439.54	64660.52
439.75	64508.97
439.96	62915.65
440.16	62841.92
440.37	63740.98
440.58	63433.78
440.78	63003.71
440.99	62174.28
441.20	64031.79
441.40	63614.01
441.61	62579.78
441.82	62997.57
442.02	63079.49
442.23	61858.90
442.43	62704.71
442.64	62899.26
442.85	62874.69
443.05	63173.69
443.26	63177.79
443.47	61817.94
443.67	62577.73
443.88	62534.73
444.08	62608.45
444.29	61299.80
444.50	62231.63
444.70	60486.76
444.91	62002.25
445.12	61314.14
445.32	60705.89
445.53	61365.34
445.73	61371.48
445.94	60482.66
446.15	60163.18
446.35	60783.71
446.56	60814.43
446.76	60195.95
446.97	60079.21
447.18	59382.90
447.38	59069.56
447.59	59956.33
447.79	59815.02
448.00	58944.64
448.21	58963.07
448.41	58387.59
448.62	58420.36
448.82	58823.81
449.03	58072.20
449.24	57441.43
449.44	57220.25
449.65	57291.93
449.85	58152.07
450.06	57613.46
450.27	56257.70
450.47	56593.57
450.68	56771.74
450.88	56415.40
451.09	56566.94
451.29	56202.41
451.50	55538.86
451.71	55362.74
451.91	55692.46
452.12	55246.00
452.32	54983.86
452.53	54523.07
452.73	54805.69
452.94	54285.51
453.15	54131.91
453.35	54197.44
453.56	52993.24
453.76	52464.86
453.97	52698.33
454.17	53413.07
454.38	52675.80
454.59	52479.20
454.79	51604.72
455.00	52423.90
455.20	52419.81
455.41	51426.54
455.61	51207.41
455.82	51772.65
456.02	50834.68
456.23	50975.99
456.44	50650.36
456.64	50392.32
456.85	49906.95
457.05	49820.94
457.26	50707.71
457.46	50107.65
457.67	49358.09
457.87	49579.28
458.08	49560.84
458.28	49290.51
458.49	48723.22
458.69	49091.86
458.90	48530.72
459.11	48252.19
459.31	48203.04
459.52	48198.94
459.72	47023.41
459.93	48254.24
460.13	47957.28
460.34	47994.15
460.54	47277.36
460.75	46523.71
460.95	46988.60
461.16	46263.61
461.36	46298.43
461.57	46370.11
461.77	46466.36
461.98	45428.04
462.18	46079.30
462.39	45587.78
462.59	45874.50
462.80	46050.63
463.00	45540.68
463.21	45440.33
463.41	44920.15
463.62	45229.39
463.82	45102.42
464.03	45053.26
464.23	44920.15
464.44	44242.27
464.64	44682.58
464.85	44291.42
465.05	44649.81
465.26	44559.70
465.46	43441.51
465.67	43685.22
465.87	43818.34
466.08	43445.61
466.28	44477.79
466.49	43875.68
466.69	43171.18
466.90	43322.73
467.10	43038.06
467.31	42276.22
467.51	42966.38
467.72	43011.44
467.92	43238.76
468.13	43015.54
468.33	42884.47
468.54	42419.58
468.74	42921.33
468.95	42227.07
469.15	42505.59
469.35	42333.56
469.56	41874.82
469.76	41956.74
469.97	41837.95
470.17	42837.36
470.38	42104.19
470.58	42349.95
470.79	42388.86
470.99	42263.93
471.20	42329.47
471.40	42245.50
471.61	41885.06
471.81	41350.54
472.01	42423.67
472.22	41878.91
472.42	41526.66
472.63	42106.24
472.83	42366.33
473.04	41366.92
473.24	41829.76
473.45	42151.29
473.65	41942.40
473.85	42132.86
474.06	41651.59
474.26	41721.22
474.47	42403.19
474.67	41309.58
474.88	42050.94
475.08	41356.68
475.28	42384.76
475.49	42220.92
475.69	41485.70
475.90	41981.31
476.10	41610.63
476.31	42173.82
476.51	41688.45
476.71	41909.63
476.92	41688.45
477.12	41663.88
477.33	41796.99
477.53	41901.44
477.73	42200.44
477.94	41579.91
478.14	41817.47
478.35	41475.46
478.55	41420.17
478.76	41469.32
478.96	41203.08
479.16	41893.25
479.37	41633.16
479.57	41301.39
479.78	41739.65
479.98	41235.85
480.18	41663.88
480.39	41395.59
480.59	41422.22
480.80	41481.61
481.00	41198.99
481.20	40842.64
481.41	41117.07
481.61	41622.92
481.81	40934.80
482.02	40631.70
482.22	40947.09
482.43	40822.16
482.63	40883.60
482.83	40822.16
483.04	41375.11
483.24	40951.18
483.45	40715.67
483.65	41047.44
483.85	40324.50
484.06	40547.73
484.26	40392.09
484.46	41102.73
484.67	40306.07
484.87	39980.45
485.07	40476.05
485.28	40824.21
485.48	40021.41
485.69	39757.22
485.89	39847.33
486.09	39869.86
486.30	39734.69
486.50	39693.73
486.70	39611.81
486.91	39216.55
487.11	39472.55
487.31	39257.51
487.52	39574.95
487.72	39609.76
487.92	38782.38
488.13	39419.30
488.33	39359.91
488.54	38874.54
488.74	38665.65
488.94	39099.82
489.15	38264.25
489.35	39370.15
489.55	38667.70
489.76	38172.09
489.96	38852.02
490.16	38258.10
490.37	38456.76
490.57	38235.58
490.77	38376.89
490.98	37705.15
491.18	38215.10
491.38	38383.03
491.59	37696.96
491.79	37946.81
491.99	37709.25
492.19	37250.50
492.40	37844.41
492.60	37260.74
492.80	37270.98
493.01	36781.52
493.21	37101.00
493.41	36838.86
493.62	37035.47
493.82	37033.42
494.02	36734.42
494.23	36748.75
494.43	36785.61
494.63	36648.40
494.84	36691.41
495.04	36472.28
495.24	36765.14
495.44	36193.75
495.65	36349.40
495.85	36154.84
496.05	36099.55
496.26	36085.21
496.46	36351.45
496.66	35810.78
496.86	35722.72
497.07	35626.46
497.27	35399.14
497.47	35225.06
497.68	34928.11
497.88	35726.81
498.08	35372.52
498.28	35249.64
498.49	35007.98
498.69	35053.03
498.89	34680.30
499.10	35192.30
499.30	34780.65
499.50	34973.16
499.70	34958.83
499.91	34661.87
500.11	34526.71
500.31	34629.10
500.51	34588.14
500.72	34516.47
500.92	34401.78
501.12	34190.84
501.33	34061.82
501.53	34006.52
501.73	34211.32
501.93	34102.78
502.14	33676.80
502.34	34237.94
502.54	33820.16
502.74	33275.40
502.95	33160.71
503.15	32538.13
503.35	33340.93
503.55	33658.37
503.76	33170.95
503.96	33275.40
504.16	32994.82
504.36	32888.33
504.57	32511.50
504.77	32464.40
504.97	33019.40
505.17	32323.09
505.37	32171.54
505.58	31962.65
505.78	32312.85
505.98	32189.97
506.18	32243.22
506.39	31815.19
506.59	32116.25
506.79	31950.36
506.99	31841.82
507.20	31886.87
507.40	31764.00
507.60	31530.53
507.80	31397.41
508.00	31139.36
508.21	31454.75
508.41	31503.90
508.61	31043.11
508.81	31004.20
509.01	30895.66
509.22	31127.08
509.42	30934.57
509.62	31241.76
509.82	30801.45
510.02	30723.63
510.23	30197.30
510.43	30391.86
510.63	30635.56
510.83	30643.76
511.03	30311.99
511.24	29926.97
511.44	30637.61
511.64	30262.83
511.84	29343.30
512.04	29804.09
512.25	29478.46
512.45	29529.66
512.65	29410.88
512.85	29441.60
513.05	29521.47
513.26	28888.65
513.46	29029.96
513.66	28859.98
513.86	29234.75
514.06	28855.88
514.26	29478.46
514.47	28708.43
514.67	28653.13
514.87	28456.53
515.07	28274.26
515.27	28073.56
515.47	28284.50
515.68	27831.90
515.88	27782.74
516.08	28089.94
516.28	27799.13
516.48	27453.02
516.68	27610.71
516.89	27539.04
517.09	27383.39
517.29	27047.52
517.49	27033.19
517.69	27014.76
517.89	27434.59
518.09	26838.63
518.30	26756.71
518.50	26388.08
518.70	26474.09
518.90	26422.89
519.10	26572.39
519.30	25915.00
519.50	26343.02
519.71	26332.78
519.91	25771.64
520.11	25851.51
520.31	25818.74
520.51	26011.25
520.71	25112.19
520.91	25486.97
521.12	25089.67
521.32	25591.42
521.52	24653.45
521.72	24587.91
521.92	24522.38
522.12	24718.98
522.32	24276.62
522.52	24260.24
522.73	24235.66
522.93	24352.40
523.13	24041.11
523.33	23877.27
523.53	23525.02
523.73	23727.77
523.93	23674.52
524.13	23619.22
524.33	25263.74
524.54	23346.84
524.74	23209.63
524.94	22826.66
525.14	23015.07
525.34	23250.59
525.54	22607.53
525.74	21991.09
525.94	22255.28
526.14	22025.90
526.34	22304.43
526.55	22034.10
526.75	21700.28
526.95	21417.66
527.15	21407.42
527.35	21231.29
527.55	21180.09
527.75	21032.64
527.95	20610.76
528.15	21020.35
528.35	20598.47
528.55	20422.34
528.75	20190.92
528.96	20330.19
529.16	20248.27
529.36	19943.12
529.56	20109.01
529.76	19906.26
529.96	19746.51
530.16	19820.24
530.36	19594.96
530.56	19222.23
530.76	19197.66
530.96	18765.54
531.16	19076.83
531.36	18798.31
531.56	19422.94
531.76	18794.21
531.96	18589.41
532.17	18491.11
532.37	18126.57
532.57	18280.17
532.77	18163.43
532.97	17884.91
533.17	17985.26
533.37	17737.46
533.57	17561.33
533.77	17608.44
533.97	17665.78
534.17	17291.00
534.37	17174.27
534.57	17293.05
534.77	17030.91
534.97	16672.51
535.17	16574.21
535.37	16756.48
535.57	16430.85
535.77	16738.05
535.97	16013.07
536.17	16459.52
536.37	16234.25
536.57	16377.61
536.77	16082.70
536.97	15298.33
537.17	15761.17
537.37	15404.82
537.57	15255.32
537.77	15726.35
537.97	15161.11
538.18	15335.19
538.38	14913.31
538.58	15490.84
538.78	14927.64
538.98	15212.31
539.18	14735.14
539.38	14446.37
539.58	14583.59
539.78	14974.75
539.98	14225.19
540.18	14303.01
540.38	14376.74
540.58	14509.86
540.78	13870.89
540.98	14032.68
541.18	13948.72
541.38	13782.83
541.58	13942.57
541.77	13492.02
541.97	13707.05
542.17	14042.92
542.37	13305.65
542.57	13123.38
542.77	13311.80
542.97	13461.30
543.17	13203.25
543.37	13176.63
543.57	12762.94
543.77	13446.96
543.97	12779.32
544.17	12570.43
544.37	12406.59
544.57	12797.76
544.77	12580.67
544.97	12416.83
545.17	12558.14
545.37	12314.44
545.57	12314.44
545.77	12265.28
545.97	12238.66
546.17	12451.65
546.37	12089.16
546.57	11882.31
546.77	12060.49
546.97	11644.75
547.17	11401.04
547.37	11611.98
547.57	11552.59
547.76	11757.39
547.96	11247.44
548.16	11208.53
548.36	11093.85
548.56	10966.87
548.76	10999.64
548.96	10905.43
549.16	10973.02
549.36	10811.23
549.56	10772.32
549.76	11341.65
549.96	10534.75
550.16	10610.53
550.36	10444.64
550.56	10725.21
550.75	10379.11
550.95	10360.67
551.15	10084.20
551.35	10078.05
551.55	10133.35
551.75	10268.52
551.95	10069.86
552.15	9617.26
552.35	10053.48
552.55	9721.71
552.75	9658.22
552.95	9430.90
553.14	9471.86
553.34	9977.70
553.54	9600.88
553.74	9389.94
553.94	9248.63
554.14	9326.45
554.34	9316.21
554.54	9252.72
554.74	9246.58
554.94	9336.69
555.13	8961.91
555.33	8451.97
555.53	8793.98
555.73	9056.12
555.93	8673.15
556.13	8894.33
556.33	8929.14
556.53	9109.36
556.73	8619.90
556.92	8607.61
557.12	8664.96
557.32	8494.97
557.52	8251.27
557.72	8298.37
557.92	8372.10
558.12	8370.05
558.32	8343.42
558.51	8486.78
558.71	8142.72
558.91	8429.44
559.11	8126.34
559.31	8066.95
559.51	7997.32
559.71	7968.65
559.91	7753.61
560.10	7606.16
560.30	8091.52
560.50	7737.23
560.70	7417.74
560.90	7636.88
561.10	7532.43
561.29	7880.58
561.49	7247.76
561.69	7354.26
561.89	7534.48
562.09	7597.96
562.29	7434.13
562.49	7073.68
562.68	7317.39
562.88	7501.71
563.08	7317.39
563.28	6881.18
563.48	7110.55
563.68	7407.50
563.87	7022.48
564.07	6762.39
564.27	6942.61
564.47	6918.04
564.67	6483.87
564.87	6504.35
565.06	6854.55
565.26	6680.47
565.46	6637.47
565.66	6436.77
565.86	7094.16
566.05	6438.81
566.25	6426.53
566.45	6533.02
566.65	6426.53
566.85	6453.15
567.05	6139.81
567.24	6088.61
567.44	6193.06
567.64	6360.99
567.84	5961.64
568.04	5941.16
568.23	6363.04
568.43	6479.77
568.63	5740.46
568.83	5941.16
569.03	6115.23
569.22	6064.04
569.42	6000.55
569.62	5685.16
569.82	5967.78
570.02	5861.29
570.21	5791.66
570.41	5580.71
570.61	5742.50
570.81	5877.67
571.00	5652.39
571.20	5351.34
571.40	5826.47
571.60	5908.39
571.80	5392.30
571.99	5498.80
572.19	5652.39
572.39	5801.90
572.59	5300.14
572.78	5167.03
572.98	5457.84
573.18	5441.45
573.38	5234.61
573.57	5470.12
573.77	5396.40
573.97	5345.20
574.17	4958.13
574.36	5126.07
574.56	5240.75
574.76	5072.82
574.96	5042.10
575.15	5296.05
575.35	5136.31
575.55	5216.18
575.75	5181.36
575.94	4919.22
576.14	5068.72
576.34	5304.24
576.54	4898.74
576.73	4642.75
576.93	4995.00
577.13	4761.53
577.33	5083.06
577.52	4677.56
577.72	4726.71
577.92	4677.56
578.12	4710.33
578.31	5144.50
578.51	5263.28
578.71	4941.75
578.90	4415.42
579.10	4968.37
579.30	4882.36
579.50	4556.73
579.69	4278.21
579.89	4421.56
580.09	4786.10
580.29	4603.83
580.48	4440.00
580.68	4325.31
580.88	4700.09
581.07	4218.82
581.27	4372.41
581.47	4329.41
581.66	4429.76
581.86	4892.60
582.06	4165.57
582.26	4409.28
582.45	4267.97
582.65	4704.18
582.85	4276.16
583.04	3844.04
583.24	4339.65
583.44	4227.01
583.63	4181.95
583.83	4040.64
584.03	4251.58
584.22	4495.29
584.42	4034.50
584.62	4030.40
584.82	4106.18
585.01	4405.18
585.21	4032.45
585.41	3878.85
585.60	4188.10
585.80	3895.24
586.00	3946.44
586.19	3696.58
586.39	3903.43
586.59	4007.87
586.78	3876.80
586.98	3776.45
587.18	3893.19
587.37	4249.54
587.57	3917.76
587.77	3987.40
587.96	3798.98
588.16	3907.52
588.36	3712.97
588.55	3772.36
588.75	4247.49
588.94	3657.67
589.14	3590.09
589.34	3829.70
589.53	4032.45
589.73	3837.89
589.93	3598.28
590.12	3405.77
590.32	3813.32
590.52	3958.72
590.71	3633.10
590.91	3383.24
591.11	3579.85
591.30	3796.93
591.50	3510.22
591.69	3223.50
591.89	3887.04
592.09	3885.00
592.28	3608.52
592.48	3549.13
592.68	3719.11
592.87	3719.11
593.07	3409.87
593.26	3422.16
593.46	3450.83
593.66	3944.39
593.85	3366.86
594.05	3497.93
594.24	3616.71
594.44	3430.35
594.64	3602.38
594.83	3127.25
595.03	4118.47
595.23	3448.78
595.42	3323.85
595.62	3497.93
595.81	3733.45
596.01	3217.36
596.20	3211.22
596.40	3248.08
596.60	3317.71
596.79	3915.72
596.99	3209.17
597.18	3010.51
597.38	3502.03
597.58	3297.23
597.77	2947.03
597.97	3000.27
598.16	3471.31
598.36	3745.73
598.56	2979.79
598.75	3461.07
598.95	3530.70
599.14	3510.22
599.34	3188.69
599.53	3110.86
599.73	3497.93
599.93	3641.29
600.12	3223.50
600.32	3278.80
600.51	3321.81
600.71	3217.36
600.90	3256.27
601.10	3129.30
601.29	3497.93
601.49	3467.21
601.69	3043.28
601.88	3047.38
602.08	3553.23
602.27	3346.38
602.47	2973.65
602.66	3012.56
602.86	3377.10
603.05	3559.37
603.25	3008.47
603.45	3090.38
603.64	3362.76
603.84	3078.10
604.03	2715.61
604.23	3094.48
604.42	3211.22
604.62	3160.02
604.81	2861.01
605.01	3350.48
605.20	3418.06
605.40	3180.50
605.59	2793.43
605.79	2990.03
605.98	3059.67
606.18	3235.79
606.37	3272.65
606.57	3098.58
606.77	3133.39
606.96	2953.17
607.16	2709.46
607.35	2897.88
607.55	3194.83
607.74	3137.49
607.94	2883.54
608.13	2904.02
608.33	3080.14
608.52	2916.31
608.72	2617.30
608.91	2936.79
609.11	2920.40
609.30	3112.91
609.50	2963.41
609.69	2615.26
609.89	3309.52
610.08	3264.46
610.28	2695.13
610.47	2799.57
610.67	3030.99
610.86	3164.11
611.06	3182.54
611.25	2850.77
611.44	3080.14
611.64	3162.06
611.83	3071.95
612.03	2734.04
612.22	3000.27
612.42	3016.66
612.61	2594.78
612.81	2662.36
613.00	2990.03
613.20	2854.87
613.39	2631.64
613.59	2848.72
613.78	2789.33
613.98	3340.24
614.17	2815.96
614.37	2932.69
614.56	2977.75
614.75	3022.80
614.95	2738.13
615.14	2768.85
615.34	2699.22
615.53	3211.22
615.73	3100.62
615.92	2787.29
616.12	2824.15
616.31	2822.10
616.50	2818.00
616.70	2711.51
616.89	2883.54
617.09	3174.35
617.28	2760.66
617.48	2727.89
617.67	2875.35
617.87	3004.37
618.06	2623.45
618.25	2381.79
618.45	2832.34
618.64	3262.41
618.84	2768.85
619.03	2766.81
619.23	2840.53
619.42	2629.59
619.61	2723.80
619.81	2731.99
620.00	2908.12
620.20	2811.86
620.39	2842.58
620.58	2584.54
620.78	2666.46
620.97	2795.48
621.17	2658.26
621.36	2357.21
621.55	3076.05
621.75	2813.91
621.94	2738.13
622.14	2484.19
622.33	2605.02
622.52	2875.35
622.72	2281.44
622.91	2721.75
623.11	2838.48
623.30	2744.28
623.49	2768.85
623.69	2641.88
623.88	2775.00
624.08	2971.60
624.27	2682.84
624.46	2643.93
624.66	2643.93
624.85	2949.08
625.05	2693.08
625.24	2590.68
625.43	2715.61
625.63	2713.56
625.82	2498.52
626.01	2297.82
626.21	2736.09
626.40	2879.44
626.59	2541.53
626.79	2748.37
626.98	2781.14
627.18	2557.91
627.37	2742.23
627.56	2420.70
627.76	2617.30
627.95	2756.57
628.14	2318.30
628.34	2650.07
628.53	2775.00
628.72	2602.97
628.92	2535.39
629.11	2844.63
629.30	2625.50
629.50	2457.56
629.69	2570.20
629.88	2562.01
630.08	2746.33
630.27	2574.30
630.46	2412.51
630.66	2469.85
630.85	2549.72
631.04	2707.41
631.24	2695.13
631.43	2428.89
631.62	2637.78
631.82	2877.40
632.01	2377.69
632.20	2344.92
632.40	3256.27
632.59	2697.17
632.78	2381.79
632.98	2389.98
633.17	2764.76
633.36	3008.47
633.56	2435.03
633.75	2394.08
633.94	2502.62
634.14	3018.71
634.33	2398.17
634.52	2486.23
634.71	2676.70
634.91	2809.81
635.10	2510.81
635.29	2475.99
635.49	2623.45
635.68	2576.34
635.87	2402.27
636.07	2303.96
636.26	2580.44
636.45	2994.13
636.64	2527.19
636.84	2488.28
637.03	2775.00
637.22	2697.17
637.42	2465.75
637.61	2473.95
637.80	2858.96
637.99	2635.74
638.19	2437.08
638.38	2588.63
638.57	2537.43
638.76	2635.74
638.96	2435.03
639.15	2756.57
639.34	2519.00
639.54	2396.12
639.73	2394.08
639.92	2330.59
640.11	2340.83
640.31	2777.05
640.50	2447.32
640.69	2557.91
640.88	2625.50
641.08	2746.33
641.27	2420.70
641.46	2473.95
641.65	2330.59
641.85	2588.63
642.04	2703.32
642.23	2340.83
642.42	2594.78
642.62	2613.21
642.81	2281.44
643.00	2674.65
643.19	2564.06
643.38	2486.23
643.58	2119.65
643.77	2344.92
643.96	2609.11
644.15	2666.46
644.35	2387.93
644.54	2197.47
644.73	2580.44
644.92	2547.67
645.12	2674.65
645.31	2123.74
645.50	2486.23
645.69	2531.29
645.88	2291.68
646.08	2297.82
646.27	2277.34
646.46	2363.36
646.65	2494.43
646.84	2357.21
647.04	2744.28
647.23	2396.12
647.42	2545.63
647.61	2605.02
647.80	2584.54
648.00	2764.76
648.19	2355.16
648.38	2328.54
648.57	2566.10
648.76	2590.68
648.96	2449.37
649.15	2559.96
649.34	2392.03
649.53	2551.77
649.72	2158.56
649.92	2445.27
650.11	2324.44
650.30	2510.81
650.49	2103.26
650.68	2303.96
650.87	2359.26
651.07	2269.15
651.26	2420.70
651.45	2275.29
651.64	2392.03
651.83	2598.87
652.02	2258.91
652.22	2269.15
652.41	2416.60
652.60	2541.53
652.79	2162.66
652.98	2314.20
653.17	2541.53
653.37	2396.12
653.56	2387.93
653.75	2469.85
653.94	2490.33
654.13	2654.17
654.32	2344.92
654.51	2330.59
654.71	2398.17
654.90	2543.58
655.09	2111.46
655.28	2351.07
655.47	2650.07
655.66	2514.91
655.85	2320.35
656.05	2478.04
656.24	2668.50
656.43	2445.27
656.62	2306.01
656.81	2545.63
657.00	2404.32
657.19	2355.16
657.38	2160.61
657.58	2559.96
657.77	2400.22
657.96	2441.18
658.15	2252.77
658.34	2379.74
658.53	2357.21
658.72	2410.46
658.91	2332.64
659.10	2549.72
659.30	2494.43
659.49	2527.19
659.68	2346.97
659.87	2400.22
660.06	2473.95
660.25	2523.10
660.44	2490.33
660.63	2205.66
660.82	2596.82
661.01	2545.63
661.21	2303.96
661.40	2387.93
661.59	2412.51
661.78	2312.16
661.97	2263.01
662.16	2379.74
662.35	2338.78
662.54	2510.81
662.73	2369.50
662.92	2379.74
663.11	2600.92
663.30	2400.22
663.50	2256.86
663.69	2191.33
663.88	2547.67
664.07	2439.13
664.26	2224.09
664.45	2322.40
664.64	2465.75
664.83	2125.79
665.02	2201.57
665.21	2387.93
665.40	2254.81
665.59	2557.91
665.78	2455.51
665.97	2338.78
666.16	2475.99
666.35	2310.11
666.54	2162.66
666.73	2619.35
666.93	2277.34
667.12	2504.67
667.31	2553.82
667.50	2367.45
667.69	2258.91
667.88	2301.92
668.07	2312.16
668.26	2183.13
668.45	2664.41
668.64	2551.77
668.83	2248.67
669.02	2244.57
669.21	2166.75
669.40	2486.23
669.59	2437.08
669.78	2252.77
669.97	2334.68
670.16	2408.41
670.35	2244.57
670.54	2328.54
670.73	2473.95
670.92	2125.79
671.11	2267.10
671.30	2400.22
671.49	2707.41
671.68	2467.80
671.87	2373.60
672.06	2334.68
672.25	2502.62
672.44	2650.07
672.63	2056.16
672.82	2295.77
673.01	2430.94
673.20	2473.95
673.39	2367.45
673.58	2181.09
673.77	2215.90
673.96	2252.77
674.15	2203.61
674.34	2404.32
674.53	2504.67
674.72	2426.84
674.91	2502.62
675.10	2316.25
675.29	2346.97
675.48	2121.70
675.67	2136.03
675.86	2396.12
676.05	2297.82
676.24	2267.10
676.43	2351.07
676.62	2545.63
676.81	2510.81
677.00	2541.53
677.19	2093.02
677.38	2187.23
677.57	2547.67
677.75	2588.63
677.94	2344.92
678.13	2183.13
678.32	2402.27
678.51	2691.03
678.70	2160.61
678.89	2392.03
679.08	2181.09
679.27	2361.31
679.46	2164.70
679.65	2408.41
679.84	2131.94
680.03	2289.63
680.22	2445.27
680.41	2342.88
680.60	2641.88
680.79	2611.16
680.97	2068.45
681.16	2240.48
681.35	2508.76
681.54	2273.25
681.73	2136.03
681.92	2336.73
682.11	2412.51
682.30	2478.04
682.49	2172.89
682.68	2133.98
682.87	2269.15
683.06	2461.66
683.25	2394.08
683.43	2125.79
683.62	2535.39
683.81	2443.23
684.00	2398.17
684.19	2277.34
684.38	2404.32
684.57	2527.19
684.76	2271.20
684.95	2234.33
685.14	2545.63
685.32	2320.35
685.51	2060.26
685.70	2428.89
685.89	2322.40
686.08	2336.73
686.27	2056.16
686.46	2158.56
686.65	2412.51
686.83	2287.58
687.02	2226.14
687.21	2220.00
687.40	2420.70
687.59	2359.26
687.78	2293.72
687.97	2099.17
688.16	2543.58
688.34	2486.23
688.53	2220.00
688.72	2287.58
688.91	2539.48
689.10	2568.15
689.29	2230.24
689.48	2133.98
689.66	2486.23
689.85	2695.13
690.04	2291.68
690.23	2422.75
690.42	2398.17
690.61	2373.60
690.80	2310.11
690.98	2170.85
691.17	2555.86
691.36	2895.83
691.55	2170.85
691.74	2170.85
691.93	2260.96
692.11	2242.53
692.30	2224.09
692.49	2461.66
692.68	2627.54
692.87	2367.45
693.06	2105.31
693.24	2328.54
693.43	2279.39
693.62	2269.15
693.81	2136.03
694.00	2199.52
694.19	2400.22
694.37	2365.40
694.56	2039.78
694.75	2408.41
694.94	2146.27
695.13	2273.25
695.31	2136.03
695.50	2078.69
695.69	2584.54
695.88	2590.68
696.07	2506.71
696.25	2459.61
696.44	2387.93
696.63	2662.36
696.82	2203.61
697.01	2133.98
697.19	2222.05
697.38	2457.56
697.57	2240.48
697.76	2283.49
697.95	2512.86
698.13	2318.30
698.32	2129.89
698.51	2314.20
698.70	2592.73
698.88	2336.73
699.07	2174.94
699.26	2189.28
699.45	2369.50
699.64	2410.46
699.82	2121.70
700.01	2324.44
700.20	2228.19
700.39	2478.04
700.57	2228.19
700.76	2420.70
700.95	2213.85
701.14	2611.16
701.32	2224.09
701.51	2287.58
701.70	2410.46
701.89	2252.77
702.07	2277.34
702.26	2281.44
702.45	2449.37
702.64	2488.28
702.82	2220.00
703.01	2340.83
703.20	2371.55
703.39	2398.17
703.57	2369.50
703.76	2621.40
703.95	2357.21
704.14	2260.96
704.32	2072.54
704.51	2318.30
704.70	2312.16
704.89	2310.11
705.07	2330.59
705.26	2346.97
705.45	2181.09
705.63	2346.97
705.82	2181.09
706.01	2213.85
706.20	2297.82
706.38	2273.25
706.57	2043.87
706.76	2101.22
706.94	2197.47
707.13	2445.27
707.32	2400.22
707.51	1955.81
707.69	2367.45
707.88	2707.41
708.07	2217.95
708.25	2187.23
708.44	2197.47
708.63	2172.89
708.81	2189.28
709.00	2492.38
709.19	2396.12
709.37	2275.29
709.56	2146.27
709.75	2418.65
709.94	2353.12
710.12	2326.49
710.31	2342.88
710.50	2396.12
710.68	2338.78
710.87	2551.77
711.06	2220.00
711.24	2383.84
711.43	2363.36
711.62	2615.26
711.80	2156.51
711.99	2473.95
712.18	2197.47
712.36	2346.97
712.55	2258.91
712.74	2199.52
712.92	2334.68
713.11	2428.89
713.30	2140.13
713.48	2303.96
713.67	2234.33
713.85	2422.75
714.04	2197.47
714.23	2662.36
714.41	2232.29
714.60	2396.12
714.79	2236.38
714.97	2633.69
715.16	2320.35
715.35	2461.66
715.53	2109.41
715.72	2334.68
715.91	2240.48
716.09	2383.84
716.28	2213.85
716.46	2371.55
716.65	2650.07
716.84	2627.54
717.02	2138.08
717.21	2220.00
717.40	2310.11
717.58	2320.35
717.77	2285.53
717.95	2346.97
718.14	2543.58
718.33	2480.09
718.51	2230.24
718.70	2105.31
718.88	2449.37
719.07	2240.48
719.26	2160.61
719.44	2361.31
719.63	2297.82
719.81	2332.64
720.00	2197.47
720.19	2125.79
720.37	2195.42
720.56	2439.13
720.74	2320.35
720.93	2277.34
721.12	2230.24
721.30	2373.60
721.49	2162.66
721.67	2228.19
721.86	2320.35
722.04	2529.24
722.23	2258.91
722.42	2273.25
722.60	2260.96
722.79	2297.82
722.97	2250.72
723.16	2316.25
723.34	2306.01
723.53	2379.74
723.72	2551.77
723.90	2344.92
724.09	2295.77
724.27	2551.77
724.46	2213.85
724.64	2185.18
724.83	2322.40
725.01	2392.03
725.20	2123.74
725.39	2295.77
725.57	2555.86
725.76	2389.98
725.94	2150.37
726.13	2011.11
726.31	2125.79
726.50	2336.73
726.68	2310.11
726.87	2369.50
727.05	2314.20
727.24	2396.12
727.42	2377.69
727.61	2297.82
727.80	2072.54
727.98	2623.45
728.17	2068.45
728.35	2250.72
728.54	2414.56
728.72	2373.60
728.91	2240.48
729.09	2045.92
729.28	2600.92
729.46	2543.58
729.65	2240.48
729.83	2148.32
730.02	2609.11
730.20	2437.08
730.39	2580.44
730.57	2228.19
730.76	2238.43
730.94	2613.21
731.13	2291.68
731.31	2082.78
731.50	2199.52
731.68	2242.53
731.87	2174.94
732.05	2328.54
732.24	2439.13
732.42	2344.92
732.61	2133.98
732.79	2232.29
732.98	2508.76
733.16	2498.52
733.35	2093.02
733.53	2281.44
733.71	2349.02
733.90	2340.83
734.08	2279.39
734.27	2154.46
734.45	2373.60
734.64	2258.91
734.82	2236.38
735.01	2142.18
735.19	2263.01
735.38	2402.27
735.56	2453.47
735.75	2490.33
735.93	2301.92
736.11	2437.08
736.30	2344.92
736.48	2189.28
736.67	2375.64
736.85	2355.16
737.04	2131.94
737.22	2422.75
737.41	2367.45
737.59	2146.27
737.77	2351.07
737.96	2115.55
738.14	2516.95
738.33	2480.09
738.51	2254.81
738.70	2414.56
738.88	1986.53
739.06	2471.90
739.25	2359.26
739.43	2199.52
739.62	2439.13
739.80	2389.98
739.99	2283.49
740.17	2144.22
740.35	2551.77
740.54	2406.36
740.72	2168.80
740.91	2432.99
741.09	2375.64
741.27	2559.96
741.46	2428.89
741.64	2152.42
741.83	2498.52
742.01	2457.56
742.19	2189.28
742.38	2215.90
742.56	2457.56
742.75	2451.42
742.93	2443.23
743.11	2596.82
743.30	2420.70
743.48	2351.07
743.67	2281.44
743.85	2322.40
744.03	2318.30
744.22	2461.66
744.40	2365.40
744.58	2346.97
744.77	2461.66
744.95	2555.86
745.14	2099.17
745.32	2234.33
745.50	2281.44
745.69	2326.49
745.87	2072.54
746.05	2488.28
746.24	2351.07
746.42	2101.22
746.61	2277.34
746.79	2430.94
746.97	2435.03
747.16	2457.56
747.34	2488.28
747.52	2453.47
747.71	2549.72
747.89	2303.96
748.07	2129.89
748.26	2070.50
748.44	2674.65
748.62	2353.12
748.81	2392.03
748.99	2392.03
749.17	2320.35
749.36	2461.66
749.54	2162.66
749.72	2181.09
749.91	2222.05
750.09	2449.37
750.27	2162.66
750.46	2170.85
750.64	2467.80
750.82	2256.86
751.01	2117.60
751.19	2316.25
751.37	2451.42
751.56	2416.60
751.74	2136.03
751.92	2248.67
752.10	2406.36
752.29	2195.42
752.47	2342.88
752.65	2238.43
752.84	2197.47
753.02	2197.47
753.20	2363.36
753.39	2328.54
753.57	2330.59
753.75	2600.92
753.93	2416.60
754.12	2097.12
754.30	2228.19
754.48	2615.26
754.67	2113.50
754.85	2232.29
755.03	2432.99
755.21	2744.28
755.40	2414.56
755.58	2203.61
755.76	2396.12
755.95	2418.65
756.13	2131.94
756.31	2224.09
756.49	2387.93
756.68	2342.88
756.86	2170.85
757.04	2402.27
757.22	2691.03
757.41	2469.85
757.59	2637.78
757.77	2432.99
757.95	2721.75
758.14	2428.89
758.32	2301.92
758.50	2308.06
758.68	2559.96
758.87	2664.41
759.05	2389.98
759.23	2496.47
759.41	2324.44
759.60	2492.38
759.78	2510.81
759.96	2174.94
760.14	2357.21
760.33	2222.05
760.51	2367.45
760.69	2322.40
760.87	2383.84
761.05	2363.36
761.24	2250.72
761.42	2387.93
761.60	2467.80
761.78	2588.63
761.97	2215.90
762.15	2508.76
762.33	2764.76
762.51	2535.39
762.69	2318.30
762.88	2539.48
763.06	2840.53
763.24	2365.40
763.42	2680.79
763.60	2424.80
763.79	2199.52
763.97	2353.12
764.15	2066.40
764.33	2418.65
764.51	2463.71
764.70	2600.92
764.88	2484.19
765.06	2322.40
765.24	2285.53
765.42	2723.80
765.61	2303.96
765.79	2357.21
765.97	2379.74
766.15	2441.18
766.33	2168.80
766.51	2263.01
766.70	2424.80
766.88	2699.22
767.06	2283.49
767.24	2308.06
767.42	2244.57
767.60	2437.08
767.79	2285.53
767.97	2353.12
768.15	2375.64
768.33	2617.30
768.51	2355.16
768.69	2615.26
768.88	2367.45
769.06	2557.91
769.24	2375.64
769.42	2549.72
769.60	2357.21
769.78	2412.51
769.96	2131.94
770.15	2803.67
770.33	2447.32
770.51	2543.58
770.69	2510.81
770.87	2322.40
771.05	2525.15
771.23	2455.51
771.41	2340.83
771.60	2158.56
771.78	2363.36
771.96	2404.32
772.14	2158.56
772.32	2490.33
772.50	2437.08
772.68	2441.18
772.86	2398.17
773.05	2414.56
773.23	2498.52
773.41	2445.27
773.59	2439.13
773.77	2246.62
773.95	2580.44
774.13	2564.06
774.31	2166.75
774.49	2592.73
774.68	2199.52
774.86	2736.09
775.04	2471.90
775.22	2312.16
775.40	2263.01
775.58	2328.54
775.76	2322.40
775.94	2353.12
776.12	2428.89
776.30	2592.73
776.48	2426.84
776.66	2525.15
776.85	2410.46
777.03	2619.35
777.21	2318.30
777.39	2443.23
777.57	2799.57
777.75	2402.27
777.93	2328.54
778.11	2650.07
778.29	2422.75
778.47	2422.75
778.65	2680.79
778.83	2705.37
779.01	2672.60
779.19	2574.30
779.37	2437.08
779.55	2623.45
779.74	2381.79
779.92	2619.35
780.10	2488.28
780.28	2508.76
780.46	2588.63
780.64	2660.31
780.82	2396.12
781.00	2623.45
781.18	2437.08
781.36	2734.04
781.54	2260.96
781.72	2551.77
781.90	2445.27
782.08	2314.20
782.26	2396.12
782.44	2459.61
782.62	2734.04
782.80	2701.27
782.98	2392.03
783.16	2365.40
783.34	2494.43
783.52	2756.57
783.70	2580.44
783.88	2131.94
784.06	2623.45
784.24	2627.54
784.42	2359.26
784.60	2133.98
784.78	2494.43
784.96	2418.65
785.14	2465.75
785.32	2322.40
785.50	2367.45
785.68	2701.27
785.86	2400.22
786.04	2285.53
786.22	2490.33
786.40	2478.04
786.58	2211.81
786.76	2308.06
786.94	2463.71
787.12	2236.38
787.30	2453.47
787.48	2314.20
787.66	2564.06
787.84	2523.10
788.02	2619.35
788.20	2242.53
788.38	2541.53
788.56	2901.97
788.74	2555.86
788.92	2197.47
789.10	2572.25
789.28	2777.05
789.46	2254.81
789.64	2811.86
789.82	2318.30
790.00	2568.15
790.17	2279.39
790.35	2469.85
790.53	2686.94
790.71	2594.78
790.89	2803.67
791.07	2404.32
791.25	2664.41
791.43	2371.55
791.61	2371.55
791.79	2365.40
791.97	2379.74
792.15	2469.85
792.33	2584.54
792.51	2207.71
792.69	2502.62
792.86	2619.35
793.04	2359.26
793.22	2363.36
793.40	2502.62
793.58	2377.69
793.76	2297.82
793.94	2924.50
794.12	2559.96
794.30	2502.62
794.48	2379.74
794.66	2570.20
794.84	2535.39
795.01	2469.85
795.19	2256.86
795.37	2525.15
795.55	2619.35
795.73	2785.24
795.91	2346.97
796.09	2312.16
796.27	2494.43
796.45	2301.92
796.62	2363.36
796.80	2490.33
796.98	2389.98
797.16	2609.11
797.34	2265.05
797.52	2387.93
797.70	2508.76
797.88	2650.07
798.06	2525.15
798.23	3198.93
798.41	2516.95
798.59	2285.53
798.77	2156.51
798.95	2574.30
799.13	2349.02
799.31	2641.88
799.48	2379.74
799.66	2418.65
799.84	2265.05
800.02	2549.72
800.20	2551.77
800.38	3145.68
800.56	2441.18
800.73	2574.30
800.91	2396.12
801.09	2992.08
801.27	2471.90
801.45	2559.96
801.63	2416.60
801.80	2594.78
801.98	2537.43
802.16	2359.26
802.34	2359.26
802.52	2541.53
802.70	2473.95
802.87	2492.38
803.05	2349.02
803.23	2488.28
803.41	2609.11
803.59	2537.43
803.77	2451.42
803.94	2465.75
804.12	2412.51
804.30	2531.29
804.48	2559.96
804.66	2109.41
804.83	2885.59
805.01	2308.06
805.19	2469.85
805.37	2195.42
805.55	2562.01
805.72	2480.09
805.90	2246.62
806.08	2426.84
806.26	2408.41
806.44	2711.51
806.61	2355.16
806.79	2297.82
806.97	2271.20
807.15	2551.77
807.32	2408.41
807.50	2506.71
807.68	2322.40
807.86	2600.92
808.04	2287.58
808.21	2478.04
808.39	2584.54
808.57	2521.05
808.75	2432.99
808.92	2260.96
809.10	2598.87
809.28	2537.43
809.46	2461.66
809.63	2453.47
809.81	2375.64
809.99	2672.60
810.17	2357.21
810.35	2478.04
810.52	2383.84
810.70	2510.81
810.88	2471.90
811.05	2645.98
811.23	2539.48
811.41	2865.11
811.59	2394.08
811.76	2228.19
811.94	2514.91
812.12	2488.28
812.30	2330.59
812.47	2547.67
812.65	2228.19
812.83	2863.06
813.01	2422.75
813.18	2373.60
813.36	2660.31
813.54	2721.75
813.71	2318.30
813.89	2277.34
814.07	2668.50
814.25	2475.99
814.42	2258.91
814.60	2379.74
814.78	2457.56
814.95	2772.95
815.13	2291.68
815.31	2459.61
815.49	2576.34
815.66	2633.69
815.84	2232.29
816.02	2406.36
816.19	2500.57
816.37	2410.46
816.55	2228.19
816.72	2580.44
816.90	2410.46
817.08	2375.64
817.25	2617.30
817.43	2265.05
817.61	2514.91
817.78	2473.95
817.96	2471.90
818.14	2281.44
818.32	2346.97
818.49	2527.19
818.67	2199.52
818.85	2602.97
819.02	2621.40
819.20	2512.86
819.38	2334.68
819.55	2361.31
819.73	2707.41
819.90	2799.57
820.08	2115.55
820.26	2424.80
820.43	2809.81
820.61	2611.16
820.79	2385.88
820.96	2195.42
821.14	2428.89
821.32	2535.39
821.49	2306.01
821.67	2242.53
821.85	2523.10
822.02	2269.15
822.20	2512.86
822.37	2285.53
822.55	2508.76
822.73	2734.04
822.90	2437.08
823.08	2353.12
823.26	2377.69
823.43	2443.23
823.61	2289.63
823.78	2412.51
823.96	2494.43
824.14	2715.61
824.31	2494.43
824.49	2295.77
824.67	2594.78
824.84	2539.48
825.02	2385.88
825.19	2162.66
825.37	2934.74
825.55	2537.43
825.72	2549.72
825.90	2756.57
826.07	2562.01
826.25	2795.48
826.43	2099.17
826.60	2435.03
826.78	2457.56
826.95	2584.54
827.13	2232.29
827.30	2488.28
827.48	2557.91
827.66	2582.49
827.83	2344.92
828.01	2381.79
828.18	2344.92
828.36	2492.38
828.53	2154.46
828.71	2152.42
828.89	2535.39
829.06	2635.74
829.24	2256.86
829.41	2271.20
829.59	2369.50
829.76	2457.56
829.94	2281.44
830.11	2318.30
830.29	2373.60
830.47	2623.45
830.64	2379.74
830.82	2607.06
830.99	2371.55
831.17	2549.72
831.34	2684.89
831.52	2379.74
831.69	2422.75
831.87	2547.67
832.04	2402.27
832.22	2271.20
832.40	2449.37
832.57	2568.15
832.75	2226.14
832.92	2105.31
833.10	2525.15
833.27	2697.17
833.45	2492.38
833.62	2197.47
833.80	2590.68
833.97	2674.65
834.15	2648.02
834.32	2371.55
834.50	2379.74
834.67	2840.53
834.85	2416.60
835.02	2408.41
835.20	2580.44
835.37	2885.59
835.55	2471.90
835.72	2562.01
835.90	2416.60
836.07	2715.61
836.25	2494.43
836.42	2484.19
836.60	2437.08
836.77	2652.12
836.95	2619.35
837.12	2629.59
837.30	2590.68
837.47	2306.01
837.65	2152.42
837.82	2324.44
838.00	2371.55
838.17	2367.45
838.34	2176.99
838.52	2424.80
838.69	2738.13
838.87	2621.40
839.04	2351.07
839.22	2228.19
839.39	2435.03
839.57	2551.77
839.74	2396.12
839.92	2189.28
840.09	2453.47
840.26	2717.65
840.44	2318.30
840.61	2508.76
840.79	2260.96
840.96	2293.72
841.14	2570.20
841.31	2236.38
841.49	2416.60
841.66	2613.21
841.83	2439.13
842.01	2596.82
842.18	2471.90
842.36	2576.34
842.53	2375.64
842.71	2574.30
842.88	2338.78
843.05	2508.76
843.23	2320.35
843.40	2334.68
843.58	2715.61
843.75	2559.96
843.92	2246.62
844.10	2332.64
844.27	2443.23
844.45	2605.02
844.62	2260.96
844.80	2521.05
844.97	2375.64
845.14	2586.58
845.32	2220.00
845.49	2138.08
845.66	2613.21
845.84	2375.64
846.01	2351.07
846.19	2359.26
846.36	2686.94
846.53	2846.68
846.71	2389.98
846.88	2387.93
847.06	2443.23
847.23	2432.99
847.40	2246.62
847.58	2496.47
847.75	2584.54
847.92	2916.31
848.10	2308.06
848.27	2355.16
848.45	2369.50
848.62	2633.69
848.79	2080.74
848.97	2385.88
849.14	2443.23
849.31	2322.40
849.49	2432.99
849.66	2129.89
849.83	2400.22
850.01	2721.75
850.18	2402.27
850.35	2428.89
850.53	2703.32
850.70	2645.98
850.87	2396.12
851.05	2308.06
851.22	2574.30
851.39	3014.61
851.57	2181.09
851.74	2252.77
851.91	2308.06
852.09	2475.99
852.26	2306.01
852.43	2170.85
852.61	2449.37
852.78	2402.27
852.95	2527.19
853.13	2248.67
853.30	2727.89
853.47	2578.39
853.65	2551.77
853.82	2357.21
853.99	2498.52
854.16	2684.89
854.34	2236.38
854.51	2211.81
854.68	2342.88
854.86	2437.08
855.03	2281.44
855.20	2142.18
855.38	2469.85
855.55	2650.07
855.72	2031.58
855.89	2033.63
856.07	2746.33
856.24	2498.52
856.41	2127.84
856.59	2404.32
856.76	2498.52
856.93	2672.60
857.10	2068.45
857.28	2205.66
857.45	2367.45
857.62	2572.25
857.79	2166.75
857.97	1988.58
858.14	2545.63
858.31	2500.57
858.48	2035.68
858.66	2246.62
858.83	2832.34
859.00	2512.86
859.17	2179.04
859.35	2168.80
859.52	2625.50
859.69	2453.47
859.86	2179.04
860.04	2093.02
860.21	2504.67
860.38	2662.36
860.55	2052.06
860.73	2412.51
860.90	2322.40
861.07	2713.56
861.24	2242.53
861.42	2121.70
861.59	2469.85
861.76	2539.48
861.93	2095.07
862.10	2150.37
862.28	2643.93
862.45	2449.37
862.62	2084.83
862.79	2308.06
862.96	2373.60
863.14	2650.07
863.31	2162.66
863.48	2609.11
863.65	2344.92
863.83	2643.93
864.00	2432.99
864.17	2009.06
864.34	2621.40
864.51	2559.96
864.68	2103.26
864.86	2486.23
865.03	2404.32
865.20	2678.74
865.37	2236.38
865.54	2236.38
865.72	2529.24
865.89	2541.53
866.06	2123.74
866.23	2379.74
866.40	2631.64
866.57	2789.33
866.75	2357.21
866.92	2146.27
867.09	2484.19
867.26	2580.44
867.43	2435.03
867.60	2133.98
867.78	2519.00
867.95	2736.09
868.12	2379.74
868.29	2093.02
868.46	2666.46
868.63	2768.85
868.81	2275.29
868.98	2222.05
869.15	2648.02
869.32	2754.52
869.49	2123.74
869.66	2220.00
869.83	2656.22
870.00	2537.43
870.18	2193.37
870.35	2275.29
870.52	2519.00
870.69	2789.33
870.86	2355.16
871.03	2213.85
871.20	2459.61
871.37	2582.49
871.55	2263.01
871.72	2115.55
871.89	2574.30
872.06	2523.10
872.23	2215.90
872.40	2279.39
872.57	2842.58
872.74	2547.67
872.91	1972.19
873.09	2133.98
873.26	2731.99
873.43	2258.91
873.60	2260.96
873.77	2207.71
873.94	2623.45
874.11	2531.29
874.28	2193.37
874.45	2090.98
874.62	2555.86
874.79	2744.28
874.97	2275.29
875.14	2164.70
875.31	2654.17
875.48	2420.70
875.65	2201.57
875.82	2426.84
875.99	2392.03
876.16	2625.50
876.33	2129.89
876.50	2502.62
876.67	3047.38
876.84	2551.77
877.01	2238.43
877.18	2428.89
877.35	2543.58
877.53	2592.73
877.70	2271.20
877.87	2357.21
878.04	2508.76
878.21	2674.65
878.38	2164.70
878.55	2269.15
878.72	2529.24
878.89	2844.63
879.06	2351.07
879.23	2422.75
879.40	2506.71
879.57	2686.94
879.74	2222.05
879.91	2369.50
880.08	2496.47
880.25	2648.02
880.42	2172.89
880.59	2179.04
880.76	2564.06
880.93	2658.26
881.10	2187.23
881.27	2267.10
881.44	2392.03
881.61	2858.96
881.78	2056.16
881.95	2342.88
882.12	2478.04
882.29	2619.35
882.46	2267.10
882.63	2281.44
882.80	2652.12
882.97	2602.97
883.14	2342.88
883.31	2252.77
883.48	2711.51
883.65	2752.47
883.82	2150.37
883.99	2303.96
884.16	3010.51
884.33	2637.78
884.50	2179.04
884.67	2195.42
884.84	2875.35
885.01	2416.60
885.18	2291.68
885.35	1953.76
885.52	2850.77
885.69	2535.39
885.86	2306.01
886.03	2060.26
886.20	2928.60
886.37	2656.22
886.54	2381.79
886.71	2007.01
886.87	2873.30
887.04	2588.63
887.21	2363.36
887.38	2148.32
887.55	2353.12
887.72	2459.61
887.89	2320.35
888.06	2090.98
888.23	2580.44
888.40	2899.92
888.57	2193.37
888.74	2224.09
888.91	2443.23
889.08	2486.23
889.25	2306.01
889.42	2187.23
889.58	2705.37
889.75	2729.94
889.92	2246.62
890.09	2475.99
890.26	3833.80
890.43	2404.32
890.60	2281.44
890.77	2187.23
890.94	2564.06
891.11	2381.79
891.28	2039.78
891.44	2326.49
891.61	2594.78
891.78	2303.96
891.95	2236.38
892.12	2490.33
892.29	2475.99
892.46	2799.57
892.63	2273.25
892.80	2179.04
892.96	2566.10
893.13	2592.73
893.30	2455.51
893.47	2344.92
893.64	2797.53
893.81	2342.88
893.98	2037.73
894.15	2217.95
894.31	2494.43
894.48	2367.45
894.65	2211.81
894.82	2695.13
894.99	2820.05
895.16	2543.58
895.33	2600.92
895.49	2328.54
895.66	2451.42
895.83	2512.86
896.00	2004.96
896.17	2195.42
896.34	2498.52
896.50	2650.07
896.67	2072.54
896.84	2199.52
897.01	2447.32
897.18	2371.55
897.35	2107.36
897.51	2207.71
897.68	2576.34
897.85	2840.53
898.02	2193.37
898.19	2115.55
898.36	2467.80
898.52	2828.24
898.69	2629.59
898.86	2469.85
899.03	2342.88
899.20	2566.10
899.36	2181.09
899.53	2213.85
899.70	2402.27
899.87	2547.67
900.04	2070.50
900.20	2514.91
900.37	2478.04
900.54	2471.90
900.71	2068.45
900.88	2506.71
901.04	2377.69
901.21	2533.34
901.38	2220.00
901.55	2086.88
901.72	2312.16
901.88	2416.60
902.05	2209.76
902.22	2242.53
902.39	2617.30
902.55	2535.39
902.72	2025.44
902.89	2078.69
903.06	2428.89
903.23	2445.27
903.39	2203.61
903.56	2131.94
903.73	2721.75
903.90	2303.96
904.06	2424.80
904.23	2230.24
904.40	2609.11
904.57	2738.13
904.73	2314.20
904.90	2338.78
905.07	2541.53
905.24	2381.79
905.40	2047.97
905.57	2119.65
905.74	2744.28
905.91	2228.19
906.07	2265.05
906.24	2383.84
906.41	2547.67
906.57	2703.32
906.74	2342.88
906.91	2224.09
907.08	2457.56
907.24	2623.45
907.41	2355.16
907.58	2176.99
907.75	2635.74
907.91	2566.10
908.08	2453.47
908.25	2467.80
908.41	2623.45
908.58	2822.10
908.75	2203.61
908.91	2361.31
909.08	2625.50
909.25	2490.33
909.42	2295.77
>>>>>End Processed Spectral Data<<<<<
