SpectraSuite Data File
++++++++++++++++++++++++++++++++++++
Date: Fri Feb 07 19:03:35 EST 2020
User: BHM
Dark Spectrum Present: No
Reference Spectrum Present: No
Number of Sampled Component Spectra: 1
Spectrometers: USB4H07074
Integration Time (usec): 1000000 (USB4H07074)
Spectra Averaged: 1 (USB4H07074)
Boxcar Smoothing: 0 (USB4H07074)
Correct for Electrical Dark: No (USB4H07074)
Strobe/Lamp Enabled: No (USB4H07074)
Correct for Detector Non-linearity: No (USB4H07074)
Correct for Stray Light: No (USB4H07074)
Number of Pixels in Processed Spectrum: 3648
>>>>>Begin Processed Spectral Data<<<<<
194.67	1286.12
194.89	1286.12
195.11	1286.12
195.33	1226.73
195.55	1312.75
195.77	2265.05
195.99	2473.95
196.21	1957.86
196.42	2029.54
196.64	2312.16
196.86	2303.96
197.08	2066.40
197.30	2246.62
197.52	2093.02
197.74	1970.15
197.96	1976.29
198.18	2027.49
198.40	2254.81
198.61	2412.51
198.83	2301.92
199.05	2174.94
199.27	2246.62
199.49	2566.10
199.71	2414.56
199.93	2162.66
200.15	2383.84
200.37	2355.16
200.58	1961.95
200.80	2394.08
201.02	2445.27
201.24	2256.86
201.46	2281.44
201.68	2285.53
201.90	2246.62
202.12	2627.54
202.34	2375.64
202.55	2527.19
202.77	2328.54
202.99	2330.59
203.21	2271.20
203.43	2455.51
203.65	2398.17
203.87	2283.49
204.09	2375.64
204.30	2580.44
204.52	2691.03
204.74	2318.30
204.96	2183.13
205.18	2228.19
205.40	2449.37
205.62	2131.94
205.84	2482.14
206.05	2299.87
206.27	2463.71
206.49	2340.83
206.71	2293.72
206.93	2377.69
207.15	2527.19
207.37	2623.45
207.58	2392.03
207.80	2041.82
208.02	2248.67
208.24	2285.53
208.46	2068.45
208.68	2127.84
208.90	2586.58
209.11	2367.45
209.33	2056.16
209.55	2269.15
209.77	2117.60
209.99	2346.97
210.21	2215.90
210.43	2107.36
210.64	2490.33
210.86	2371.55
211.08	1964.00
211.30	2535.39
211.52	2420.70
211.74	2441.18
211.95	2111.46
212.17	2441.18
212.39	2367.45
212.61	2496.47
212.83	2082.78
213.05	2172.89
213.26	2373.60
213.48	2510.81
213.70	2060.26
213.92	2123.74
214.14	2525.15
214.36	2148.32
214.57	2041.82
214.79	2426.84
215.01	2461.66
215.23	2582.49
215.45	2224.09
215.67	2103.26
215.88	2553.82
216.10	2576.34
216.32	1996.77
216.54	2072.54
216.76	2299.87
216.97	2359.26
217.19	2076.64
217.41	2166.75
217.63	2392.03
217.85	2398.17
218.07	2039.78
218.28	2512.86
218.50	2551.77
218.72	2373.60
218.94	2133.98
219.16	2346.97
219.37	2269.15
219.59	2359.26
219.81	1990.63
220.03	2209.76
220.25	2426.84
220.46	2639.83
220.68	2148.32
220.90	2054.11
221.12	2349.02
221.34	2254.81
221.55	2238.43
221.77	2015.20
221.99	2197.47
222.21	2351.07
222.43	2447.32
222.64	2043.87
222.86	2584.54
223.08	2314.20
223.30	2164.70
223.52	2250.72
223.73	2404.32
223.95	2754.52
224.17	2240.48
224.39	2176.99
224.60	2459.61
224.82	2318.30
225.04	2107.36
225.26	2086.88
225.48	2191.33
225.69	2559.96
225.91	2142.18
226.13	2508.76
226.35	2361.31
226.56	2418.65
226.78	2011.11
227.00	2033.63
227.22	2392.03
227.44	2445.27
227.65	2103.26
227.87	2308.06
228.09	2379.74
228.31	2437.08
228.52	2228.19
228.74	2152.42
228.96	2471.90
229.18	2267.10
229.39	2426.84
229.61	2099.17
229.83	2240.48
230.05	2295.77
230.26	2553.82
230.48	2338.78
230.70	2527.19
230.92	2295.77
231.13	2144.22
231.35	2174.94
231.57	2310.11
231.79	2469.85
232.00	2140.13
232.22	1912.80
232.44	2361.31
232.66	2471.90
232.87	2330.59
233.09	2123.74
233.31	2514.91
233.53	2412.51
233.74	2248.67
233.96	2596.82
234.18	2281.44
234.40	2435.03
234.61	2037.73
234.83	2115.55
235.05	2486.23
235.27	2418.65
235.48	2019.30
235.70	2244.57
235.92	2359.26
236.14	2459.61
236.35	2111.46
236.57	2412.51
236.79	2494.43
237.00	2402.27
237.22	2121.70
237.44	2336.73
237.66	2260.96
237.87	2555.86
238.09	2064.35
238.31	2013.15
238.53	2242.53
238.74	2324.44
238.96	2170.85
239.18	2056.16
239.39	2224.09
239.61	2420.70
239.83	2297.82
240.05	2187.23
240.26	2179.04
240.48	2519.00
240.70	2263.01
240.91	2392.03
241.13	2306.01
241.35	2133.98
241.56	2176.99
241.78	2136.03
242.00	2389.98
242.22	2541.53
242.43	2414.56
242.65	2502.62
242.87	2394.08
243.08	2435.03
243.30	2211.81
243.52	2314.20
243.73	2801.62
243.95	2469.85
244.17	2158.56
244.39	1974.24
244.60	2410.46
244.82	2430.94
245.04	2123.74
245.25	2004.96
245.47	2293.72
245.69	2365.40
245.90	2113.50
246.12	1994.72
246.34	2465.75
246.55	2486.23
246.77	2566.10
246.99	2306.01
247.20	2254.81
247.42	2615.26
247.64	1955.81
247.86	1974.24
248.07	2572.25
248.29	2273.25
248.51	2197.47
248.72	2244.57
248.94	2432.99
249.16	2330.59
249.37	1976.29
249.59	2320.35
249.81	2271.20
250.02	2297.82
250.24	2377.69
250.46	2344.92
250.67	2463.71
250.89	2215.90
251.11	1994.72
251.32	2201.57
251.54	2465.75
251.76	2396.12
251.97	2129.89
252.19	2254.81
252.40	2203.61
252.62	2523.10
252.84	2426.84
253.05	2385.88
253.27	2711.51
253.49	2357.21
253.70	2199.52
253.92	2539.48
254.14	2533.34
254.35	2267.10
254.57	2185.18
254.79	2076.64
255.00	2674.65
255.22	2461.66
255.44	2283.49
255.65	2316.25
255.87	2232.29
256.08	2377.69
256.30	2000.87
256.52	2217.95
256.73	2449.37
256.95	2437.08
257.17	1847.27
257.38	2453.47
257.60	2379.74
257.82	2297.82
258.03	2088.93
258.25	2047.97
258.46	2299.87
258.68	2463.71
258.90	2117.60
259.11	1937.38
259.33	2502.62
259.55	2174.94
259.76	2279.39
259.98	2076.64
260.19	2043.87
260.41	2271.20
260.63	2129.89
260.84	2109.41
261.06	2443.23
261.27	2445.27
261.49	2144.22
261.71	2289.63
261.92	2260.96
262.14	2471.90
262.35	2162.66
262.57	1990.63
262.79	2228.19
263.00	2379.74
263.22	2080.74
263.44	2164.70
263.65	2303.96
263.87	2475.99
264.08	2088.93
264.30	2318.30
264.52	2373.60
264.73	2570.20
264.95	2101.22
265.16	2346.97
265.38	2355.16
265.59	2303.96
265.81	2320.35
266.03	2244.57
266.24	2369.50
266.46	2281.44
266.67	2369.50
266.89	2385.88
267.11	2369.50
267.32	2197.47
267.54	2138.08
267.75	2203.61
267.97	2164.70
268.19	2283.49
268.40	2007.01
268.62	1970.15
268.83	2416.60
269.05	2240.48
269.26	2377.69
269.48	2224.09
269.70	2330.59
269.91	2478.04
270.13	2195.42
270.34	2414.56
270.56	2170.85
270.77	2271.20
270.99	1982.43
271.21	2340.83
271.42	2205.66
271.64	2453.47
271.85	2205.66
272.07	2320.35
272.28	2543.58
272.50	2453.47
272.71	2531.29
272.93	2129.89
273.15	2164.70
273.36	2289.63
273.58	2093.02
273.79	2244.57
274.01	2566.10
274.22	2674.65
274.44	2170.85
274.65	2129.89
274.87	2209.76
275.09	2375.64
275.30	2043.87
275.52	2207.71
275.73	2303.96
275.95	2508.76
276.16	2430.94
276.38	2152.42
276.59	2557.91
276.81	2598.87
277.02	2312.16
277.24	1996.77
277.45	2672.60
277.67	2375.64
277.89	2121.70
278.10	2314.20
278.32	2293.72
278.53	2357.21
278.75	2160.61
278.96	2340.83
279.18	2326.49
279.39	2238.43
279.61	2142.18
279.82	2271.20
280.04	2277.34
280.25	2328.54
280.47	2031.58
280.68	1998.82
280.90	2246.62
281.11	2283.49
281.33	2156.51
281.54	2088.93
281.76	2344.92
281.97	2125.79
282.19	2121.70
282.40	2432.99
282.62	2291.68
282.83	2523.10
283.05	2140.13
283.27	2258.91
283.48	2166.75
283.70	2338.78
283.91	2338.78
284.13	2158.56
284.34	2164.70
284.56	2439.13
284.77	2152.42
284.99	2211.81
285.20	2281.44
285.42	2498.52
285.63	2320.35
285.84	2185.18
286.06	2293.72
286.27	2138.08
286.49	2093.02
286.70	2176.99
286.92	2285.53
287.13	2265.05
287.35	2211.81
287.56	2193.37
287.78	2619.35
287.99	2213.85
288.21	2033.63
288.42	2719.70
288.64	2467.80
288.85	2527.19
289.07	2271.20
289.28	2140.13
289.50	2258.91
289.71	2365.40
289.93	2072.54
290.14	2019.30
290.36	2502.62
290.57	2205.66
290.79	2295.77
291.00	2310.11
291.22	2336.73
291.43	2744.28
291.64	2316.25
291.86	2174.94
292.07	2504.67
292.29	2555.86
292.50	2285.53
292.72	2045.92
292.93	2697.17
293.15	2551.77
293.36	2275.29
293.58	2340.83
293.79	2332.64
294.00	2557.91
294.22	2045.92
294.43	2191.33
294.65	2779.09
294.86	2426.84
295.08	2340.83
295.29	2865.11
295.51	2641.88
295.72	2723.80
295.94	2312.16
296.15	1964.00
296.36	2381.79
296.58	2432.99
296.79	2437.08
297.01	2256.86
297.22	2371.55
297.44	2392.03
297.65	2404.32
297.86	2519.00
298.08	2404.32
298.29	2670.55
298.51	2392.03
298.72	2324.44
298.94	2267.10
299.15	2598.87
299.36	2260.96
299.58	2189.28
299.79	2600.92
300.01	2475.99
300.22	2373.60
300.44	2078.69
300.65	2510.81
300.86	2355.16
301.08	2342.88
301.29	2240.48
301.51	2738.13
301.72	2908.12
301.93	2353.12
302.15	2220.00
302.36	2699.22
302.58	2523.10
302.79	2459.61
303.01	2195.42
303.22	2494.43
303.43	2582.49
303.65	2244.57
303.86	2371.55
304.08	2369.50
304.29	2455.51
304.50	2461.66
304.72	2121.70
304.93	2392.03
305.15	2879.44
305.36	2240.48
305.57	2414.56
305.79	2314.20
306.00	2502.62
306.22	2402.27
306.43	2447.32
306.64	2461.66
306.86	2750.42
307.07	2465.75
307.28	2301.92
307.50	2420.70
307.71	2813.91
307.93	2113.50
308.14	2375.64
308.35	2525.15
308.57	2586.58
308.78	2379.74
309.00	2318.30
309.21	2639.83
309.42	2596.82
309.64	2424.80
309.85	2213.85
310.06	2529.24
310.28	2564.06
310.49	2299.87
310.71	2013.15
310.92	2543.58
311.13	2428.89
311.35	2258.91
311.56	2568.15
311.77	2615.26
311.99	2658.26
312.20	2359.26
312.41	2484.19
312.63	2535.39
312.84	2551.77
313.06	2275.29
313.27	2539.48
313.48	2357.21
313.70	2537.43
313.91	2359.26
314.12	2189.28
314.34	2559.96
314.55	2435.03
314.76	2502.62
314.98	2488.28
315.19	2449.37
315.40	2580.44
315.62	2346.97
315.83	2559.96
316.04	2613.21
316.26	2611.16
316.47	2400.22
316.68	2398.17
316.90	2324.44
317.11	2535.39
317.32	2592.73
317.54	2291.68
317.75	2424.80
317.96	2371.55
318.18	2271.20
318.39	2332.64
318.60	2486.23
318.82	2301.92
319.03	2170.85
319.24	2277.34
319.46	2656.22
319.67	2582.49
319.88	2250.72
320.10	2226.14
320.31	2336.73
320.52	2449.37
320.74	2119.65
320.95	2148.32
321.16	2256.86
321.38	2725.85
321.59	2310.11
321.80	2031.58
322.02	2338.78
322.23	2803.67
322.44	2308.06
322.65	2172.89
322.87	2406.36
323.08	2486.23
323.29	2398.17
323.51	2502.62
323.72	2637.78
323.93	2422.75
324.15	2287.58
324.36	2402.27
324.57	2344.92
324.78	2496.47
325.00	2424.80
325.21	2398.17
325.42	2484.19
325.64	2500.57
325.85	2342.88
326.06	2113.50
326.28	2465.75
326.49	2361.31
326.70	2338.78
326.91	2400.22
327.13	2600.92
327.34	2547.67
327.55	2463.71
327.77	2160.61
327.98	2488.28
328.19	2408.41
328.40	2324.44
328.62	2207.71
328.83	2504.67
329.04	2402.27
329.25	2238.43
329.47	2220.00
329.68	2355.16
329.89	2451.42
330.11	2217.95
330.32	2224.09
330.53	2349.02
330.74	2572.25
330.96	2375.64
331.17	2162.66
331.38	2613.21
331.59	2461.66
331.81	2217.95
332.02	2277.34
332.23	2416.60
332.44	2535.39
332.66	2455.51
332.87	2074.59
333.08	2402.27
333.29	2586.58
333.51	2549.72
333.72	2107.36
333.93	2258.91
334.14	2562.01
334.36	2402.27
334.57	2269.15
334.78	2426.84
334.99	2760.66
335.21	2392.03
335.42	2465.75
335.63	2500.57
335.84	2457.56
336.06	2308.06
336.27	2183.13
336.48	2297.82
336.69	2621.40
336.91	2320.35
337.12	2428.89
337.33	2621.40
337.54	2281.44
337.75	2574.30
337.97	2199.52
338.18	2545.63
338.39	2328.54
338.60	2170.85
338.82	2629.59
339.03	2396.12
339.24	2418.65
339.45	2299.87
339.66	2303.96
339.88	2865.11
340.09	2246.62
340.30	2338.78
340.51	2428.89
340.73	2449.37
340.94	2803.67
341.15	2181.09
341.36	2389.98
341.57	2480.09
341.79	2549.72
342.00	2201.57
342.21	2158.56
342.42	2125.79
342.63	2412.51
342.85	2349.02
343.06	2283.49
343.27	2244.57
343.48	2410.46
343.69	2281.44
343.91	2410.46
344.12	2559.96
344.33	2338.78
344.54	2635.74
344.75	2107.36
344.97	2269.15
345.18	2263.01
345.39	2312.16
345.60	2238.43
345.81	2308.06
346.02	2336.73
346.24	2492.38
346.45	2359.26
346.66	2295.77
346.87	2369.50
347.08	2154.46
347.30	2127.84
347.51	2406.36
347.72	2379.74
347.93	2342.88
348.14	2346.97
348.35	2324.44
348.57	2295.77
348.78	2050.02
348.99	2248.67
349.20	2152.42
349.41	2756.57
349.62	2766.81
349.84	2488.28
350.05	2281.44
350.26	2295.77
350.47	2283.49
350.68	2295.77
350.89	2465.75
351.11	2336.73
351.32	2365.40
351.53	2310.11
351.74	2336.73
351.95	2729.94
352.16	2285.53
352.37	2297.82
352.59	2346.97
352.80	2551.77
353.01	2201.57
353.22	2514.91
353.43	2488.28
353.64	2385.88
353.86	2189.28
354.07	2461.66
354.28	2209.76
354.49	2289.63
354.70	2201.57
354.91	2097.12
355.12	2576.34
355.33	2633.69
355.55	2138.08
355.76	2303.96
355.97	2435.03
356.18	2510.81
356.39	2301.92
356.60	2113.50
356.81	2355.16
357.03	2303.96
357.24	2406.36
357.45	2551.77
357.66	2326.49
357.87	2555.86
358.08	2285.53
358.29	2181.09
358.50	2451.42
358.71	2494.43
358.93	2203.61
359.14	2082.78
359.35	2846.68
359.56	2322.40
359.77	2297.82
359.98	2160.61
360.19	2324.44
360.40	2437.08
360.61	2428.89
360.83	2330.59
361.04	2320.35
361.25	2447.32
361.46	2269.15
361.67	1955.81
361.88	2215.90
362.09	2140.13
362.30	2148.32
362.51	2381.79
362.72	2250.72
362.94	2627.54
363.15	2400.22
363.36	2551.77
363.57	2256.86
363.78	2445.27
363.99	2486.23
364.20	2183.13
364.41	2320.35
364.62	2471.90
364.83	2435.03
365.04	2191.33
365.26	2254.81
365.47	2252.77
365.68	2228.19
365.89	2232.29
366.10	2131.94
366.31	2719.70
366.52	2064.35
366.73	2367.45
366.94	2387.93
367.15	2234.33
367.36	2301.92
367.57	2342.88
367.78	2441.18
367.99	2465.75
368.21	2109.41
368.42	2289.63
368.63	2412.51
368.84	2537.43
369.05	2355.16
369.26	2246.62
369.47	2383.84
369.68	2463.71
369.89	2232.29
370.10	2357.21
370.31	2764.76
370.52	2478.04
370.73	2080.74
370.94	2387.93
371.15	2420.70
371.36	2396.12
371.57	2289.63
371.78	2353.12
371.99	2301.92
372.20	2633.69
372.42	2523.10
372.63	2254.81
372.84	2244.57
373.05	2455.51
373.26	2326.49
373.47	2449.37
373.68	2349.02
373.89	2353.12
374.10	1968.10
374.31	2586.58
374.52	2351.07
374.73	2322.40
374.94	2389.98
375.15	2521.05
375.36	2232.29
375.57	2299.87
375.78	2189.28
375.99	2199.52
376.20	2263.01
376.41	2353.12
376.62	2250.72
376.83	2396.12
377.04	2179.04
377.25	2465.75
377.46	2201.57
377.67	2232.29
377.88	2443.23
378.09	2703.32
378.30	2146.27
378.51	2359.26
378.72	2236.38
378.93	2523.10
379.14	2031.58
379.35	2097.12
379.56	2369.50
379.77	2660.31
379.98	2222.05
380.19	2426.84
380.40	2164.70
380.61	2295.77
380.82	2224.09
381.03	2353.12
381.24	2414.56
381.45	2263.01
381.66	2281.44
381.87	2279.39
382.08	2306.01
382.29	2408.41
382.50	2265.05
382.71	2533.34
382.92	2351.07
383.13	2551.77
383.34	2199.52
383.55	2183.13
383.76	2338.78
383.97	2365.40
384.18	2445.27
384.39	2478.04
384.60	2367.45
384.81	2383.84
385.02	2301.92
385.23	2482.14
385.44	2273.25
385.65	2844.63
385.86	2609.11
386.07	2271.20
386.28	2224.09
386.49	2195.42
386.70	2320.35
386.91	2174.94
387.11	2492.38
387.32	2316.25
387.53	2275.29
387.74	2422.75
387.95	2377.69
388.16	2314.20
388.37	2631.64
388.58	2486.23
388.79	2389.98
389.00	2568.15
389.21	2326.49
389.42	2199.52
389.63	2150.37
389.84	2543.58
390.05	2269.15
390.26	2291.68
390.47	2119.65
390.68	2336.73
390.89	2197.47
391.09	2424.80
391.30	2392.03
391.51	2594.78
391.72	2228.19
391.93	2459.61
392.14	2314.20
392.35	2273.25
392.56	2482.14
392.77	2320.35
392.98	2310.11
393.19	2338.78
393.40	2375.64
393.61	2252.77
393.82	2519.00
394.02	2396.12
394.23	2310.11
394.44	2289.63
394.65	2492.38
394.86	2295.77
395.07	2306.01
395.28	2164.70
395.49	2148.32
395.70	2475.99
395.91	2510.81
396.12	2185.18
396.32	2353.12
396.53	2299.87
396.74	2297.82
396.95	2312.16
397.16	2662.36
397.37	2246.62
397.58	2502.62
397.79	2099.17
398.00	2250.72
398.21	2475.99
398.41	2295.77
398.62	2289.63
398.83	2240.48
399.04	2889.68
399.25	2387.93
399.46	2189.28
399.67	2211.81
399.88	2504.67
400.09	2205.66
400.29	2475.99
400.50	2371.55
400.71	2148.32
400.92	2189.28
401.13	2191.33
401.34	2375.64
401.55	2226.14
401.76	2510.81
401.96	2279.39
402.17	2443.23
402.38	2394.08
402.59	2410.46
402.80	2168.80
403.01	2375.64
403.22	2359.26
403.43	2416.60
403.63	2146.27
403.84	2498.52
404.05	2506.71
404.26	2242.53
404.47	2246.62
404.68	2338.78
404.89	2314.20
405.09	2293.72
405.30	2103.26
405.51	2232.29
405.72	2478.04
405.93	2392.03
406.14	2154.46
406.35	2543.58
406.55	2428.89
406.76	2361.31
406.97	2359.26
407.18	2404.32
407.39	2484.19
407.60	2473.95
407.80	2279.39
408.01	2519.00
408.22	2420.70
408.43	2179.04
408.64	2168.80
408.85	2363.36
409.05	2230.24
409.26	2404.32
409.47	2467.80
409.68	2310.11
409.89	2291.68
410.10	2017.25
410.30	2379.74
410.51	2203.61
410.72	2486.23
410.93	2105.31
411.14	2228.19
411.35	2246.62
411.55	2363.36
411.76	2328.54
411.97	2213.85
412.18	2529.24
412.39	2480.09
412.59	2150.37
412.80	2279.39
413.01	2408.41
413.22	2224.09
413.43	2389.98
413.63	2275.29
413.84	2252.77
414.05	2422.75
414.26	2369.50
414.47	2324.44
414.67	2531.29
414.88	2299.87
415.09	2121.70
415.30	2019.30
415.51	2365.40
415.71	2519.00
415.92	2226.14
416.13	2230.24
416.34	2328.54
416.55	2256.86
416.75	2230.24
416.96	2076.64
417.17	2420.70
417.38	2287.58
417.59	2770.90
417.79	2322.40
418.00	2117.60
418.21	2342.88
418.42	2162.66
418.62	2314.20
418.83	2344.92
419.04	2731.99
419.25	2725.85
419.46	2267.10
419.66	2500.57
419.87	2445.27
420.08	2400.22
420.29	2191.33
420.49	2375.64
420.70	2510.81
420.91	2189.28
421.12	2090.98
421.32	2369.50
421.53	2346.97
421.74	2258.91
421.95	2336.73
422.15	2287.58
422.36	2461.66
422.57	2703.32
422.78	2490.33
422.98	2215.90
423.19	2367.45
423.40	2303.96
423.61	2242.53
423.81	2260.96
424.02	2306.01
424.23	2371.55
424.44	2400.22
424.64	2394.08
424.85	2594.78
425.06	2340.83
425.27	2041.82
425.47	2250.72
425.68	2355.16
425.89	2203.61
426.10	2170.85
426.30	2447.32
426.51	2232.29
426.72	2373.60
426.92	2396.12
427.13	2301.92
427.34	2648.02
427.55	2797.53
427.75	2242.53
427.96	2555.86
428.17	2273.25
428.38	2275.29
428.58	2322.40
428.79	2377.69
429.00	2447.32
429.20	2406.36
429.41	2150.37
429.62	2412.51
429.82	2310.11
430.03	2170.85
430.24	2185.18
430.45	2252.77
430.65	2662.36
430.86	2361.31
431.07	2230.24
431.27	2263.01
431.48	2797.53
431.69	2187.23
431.90	2289.63
432.10	2220.00
432.31	2406.36
432.52	2174.94
432.72	2566.10
432.93	2303.96
433.14	2355.16
433.34	2392.03
433.55	2246.62
433.76	2455.51
433.96	2480.09
434.17	2076.64
434.38	2523.10
434.58	2267.10
434.79	2441.18
435.00	2531.29
435.21	2445.27
435.41	2492.38
435.62	2404.32
435.83	2146.27
436.03	2144.22
436.24	2260.96
436.45	2461.66
436.65	2314.20
436.86	2275.29
437.07	2306.01
437.27	2588.63
437.48	2506.71
437.69	2369.50
437.89	2459.61
438.10	2488.28
438.31	2484.19
438.51	2375.64
438.72	2252.77
438.92	2369.50
439.13	2248.67
439.34	2273.25
439.54	2498.52
439.75	2562.01
439.96	2174.94
440.16	2199.52
440.37	2365.40
440.58	2217.95
440.78	2332.64
440.99	2228.19
441.20	2289.63
441.40	2525.15
441.61	2465.75
441.82	2303.96
442.02	2349.02
442.23	2224.09
442.43	2138.08
442.64	2543.58
442.85	2250.72
443.05	2463.71
443.26	2328.54
443.47	2162.66
443.67	2271.20
443.88	2328.54
444.08	2269.15
444.29	2103.26
444.50	2230.24
444.70	2326.49
444.91	2383.84
445.12	2133.98
445.32	2138.08
445.53	2670.55
445.73	2285.53
445.94	2289.63
446.15	2287.58
446.35	2416.60
446.56	2502.62
446.76	2371.55
446.97	2469.85
447.18	2420.70
447.38	2217.95
447.59	2306.01
447.79	2105.31
448.00	2340.83
448.21	2150.37
448.41	2207.71
448.62	2367.45
448.82	2537.43
449.03	2250.72
449.24	2293.72
449.44	2398.17
449.65	2482.14
449.85	2406.36
450.06	2066.40
450.27	2263.01
450.47	2340.83
450.68	2103.26
450.88	2422.75
451.09	2355.16
451.29	2330.59
451.50	2064.35
451.71	2330.59
451.91	2432.99
452.12	2228.19
452.32	2263.01
452.53	2254.81
452.73	2295.77
452.94	2332.64
453.15	2185.18
453.35	2224.09
453.56	2291.68
453.76	2514.91
453.97	2213.85
454.17	2060.26
454.38	2047.97
454.59	2336.73
454.79	2123.74
455.00	2342.88
455.20	2494.43
455.41	2228.19
455.61	2056.16
455.82	2435.03
456.02	2295.77
456.23	2449.37
456.44	2047.97
456.64	2203.61
456.85	2230.24
457.05	2328.54
457.26	2269.15
457.46	2510.81
457.67	2355.16
457.87	2537.43
458.08	2066.40
458.28	2402.27
458.49	2211.81
458.69	2662.36
458.90	2381.79
459.11	2371.55
459.31	2435.03
459.52	2256.86
459.72	2011.11
459.93	2191.33
460.13	2371.55
460.34	2236.38
460.54	2170.85
460.75	1994.72
460.95	2228.19
461.16	2179.04
461.36	2127.84
461.57	2301.92
461.77	2310.11
461.98	2164.70
462.18	2256.86
462.39	2207.71
462.59	2303.96
462.80	2316.25
463.00	2260.96
463.21	2453.47
463.41	2283.49
463.62	2625.50
463.82	2328.54
464.03	2162.66
464.23	2244.57
464.44	2295.77
464.64	2617.30
464.85	2396.12
465.05	2404.32
465.26	2441.18
465.46	2136.03
465.67	2252.77
465.87	2328.54
466.08	2205.66
466.28	2373.60
466.49	2664.41
466.69	2254.81
466.90	2355.16
467.10	2232.29
467.31	2168.80
467.51	2416.60
467.72	2412.51
467.92	2404.32
468.13	2648.02
468.33	2306.01
468.54	2473.95
468.74	2297.82
468.95	2271.20
469.15	2396.12
469.35	2297.82
469.56	2615.26
469.76	2203.61
469.97	2162.66
470.17	2607.06
470.38	2078.69
470.58	2367.45
470.79	2455.51
470.99	2269.15
471.20	2492.38
471.40	2594.78
471.61	2469.85
471.81	2306.01
472.01	2396.12
472.22	2074.59
472.42	2183.13
472.63	2308.06
472.83	2254.81
473.04	2138.08
473.24	2369.50
473.45	2498.52
473.65	2267.10
473.85	2254.81
474.06	2148.32
474.26	2224.09
474.47	2490.33
474.67	2314.20
474.88	2326.49
475.08	2256.86
475.28	2392.03
475.49	2551.77
475.69	2363.36
475.90	2396.12
476.10	2316.25
476.31	2594.78
476.51	2506.71
476.71	2598.87
476.92	2293.72
477.12	2252.77
477.33	2336.73
477.53	2314.20
477.73	2398.17
477.94	2076.64
478.14	2404.32
478.35	2162.66
478.55	2209.76
478.76	2222.05
478.96	2306.01
479.16	2187.23
479.37	2404.32
479.57	2308.06
479.78	2617.30
479.98	2279.39
480.18	2342.88
480.39	2656.22
480.59	2140.13
480.80	2383.84
481.00	2465.75
481.20	2326.49
481.41	2525.15
481.61	2404.32
481.81	2361.31
482.02	2181.09
482.22	2373.60
482.43	2414.56
482.63	2314.20
482.83	2088.93
483.04	2424.80
483.24	2248.67
483.45	2375.64
483.65	2336.73
483.85	2240.48
484.06	2197.47
484.26	2367.45
484.46	2746.33
484.67	2244.57
484.87	2289.63
485.07	2342.88
485.28	2471.90
485.48	2377.69
485.69	2187.23
485.89	2181.09
486.09	2346.97
486.30	2248.67
486.50	2162.66
486.70	2412.51
486.91	2258.91
487.11	2146.27
487.31	2330.59
487.52	2224.09
487.72	2529.24
487.92	2152.42
488.13	2748.37
488.33	2375.64
488.54	2250.72
488.74	2336.73
488.94	2576.34
489.15	2224.09
489.35	2457.56
489.55	2449.37
489.76	2224.09
489.96	2551.77
490.16	2295.77
490.37	2234.33
490.57	2279.39
490.77	2291.68
490.98	2215.90
491.18	2250.72
491.38	2392.03
491.59	2408.41
491.79	2418.65
491.99	2320.35
492.19	2299.87
492.40	2338.78
492.60	2312.16
492.80	2271.20
493.01	2224.09
493.21	2349.02
493.41	2226.14
493.62	2447.32
493.82	2451.42
494.02	2336.73
494.23	2396.12
494.43	2424.80
494.63	2482.14
494.84	2320.35
495.04	2146.27
495.24	2320.35
495.44	2338.78
495.65	2422.75
495.85	2424.80
496.05	2475.99
496.26	2504.67
496.46	2680.79
496.66	2275.29
496.86	2269.15
497.07	2519.00
497.27	2303.96
497.47	2564.06
497.68	2142.18
497.88	2838.48
498.08	2293.72
498.28	2435.03
498.49	2318.30
498.69	2371.55
498.89	2105.31
499.10	2592.73
499.30	2207.71
499.50	2410.46
499.70	2351.07
499.91	2488.28
500.11	2369.50
500.31	2312.16
500.51	2201.57
500.72	2392.03
500.92	2592.73
501.12	2494.43
501.33	2146.27
501.53	2316.25
501.73	2195.42
501.93	2478.04
502.14	2455.51
502.34	2701.27
502.54	2506.71
502.74	2338.78
502.95	2162.66
503.15	2277.34
503.35	2279.39
503.55	2650.07
503.76	2281.44
503.96	2222.05
504.16	2467.80
504.36	2293.72
504.57	2164.70
504.77	2148.32
504.97	2531.29
505.17	2349.02
505.37	2148.32
505.58	2232.29
505.78	2275.29
505.98	2394.08
506.18	2312.16
506.39	2166.75
506.59	2445.27
506.79	2220.00
506.99	2303.96
507.20	2297.82
507.40	2394.08
507.60	2322.40
507.80	2299.87
508.00	2117.60
508.21	2310.11
508.41	2402.27
508.61	2293.72
508.81	2283.49
509.01	2291.68
509.22	2496.47
509.42	2240.48
509.62	2281.44
509.82	2346.97
510.02	2609.11
510.23	2426.84
510.43	2238.43
510.63	2885.59
510.83	2400.22
511.03	2328.54
511.24	2377.69
511.44	2713.56
511.64	2731.99
511.84	2383.84
512.04	2486.23
512.25	2498.52
512.45	2582.49
512.65	2441.18
512.85	2314.20
513.05	2541.53
513.26	2320.35
513.46	2525.15
513.66	2385.88
513.86	2222.05
514.06	2590.68
514.26	2602.97
514.47	2277.34
514.67	2555.86
514.87	2453.47
515.07	2160.61
515.27	2346.97
515.47	2607.06
515.68	2277.34
515.88	2312.16
516.08	2562.01
516.28	2371.55
516.48	2543.58
516.68	2367.45
516.89	2318.30
517.09	2297.82
517.29	2377.69
517.49	2334.68
517.69	2584.54
517.89	2709.46
518.09	2240.48
518.30	2236.38
518.50	2459.61
518.70	2207.71
518.90	2310.11
519.10	2947.03
519.30	2217.95
519.50	2447.32
519.71	2361.31
519.91	2154.46
520.11	2379.74
520.31	2392.03
520.51	2889.68
520.71	2265.05
520.91	2369.50
521.12	2455.51
521.32	2674.65
521.52	2430.94
521.72	2220.00
521.92	2144.22
522.12	2482.14
522.32	2461.66
522.52	2420.70
522.73	2426.84
522.93	2449.37
523.13	2389.98
523.33	2351.07
523.53	2303.96
523.73	2420.70
523.93	2428.89
524.13	2627.54
524.33	2863.06
524.54	2645.98
524.74	2342.88
524.94	2381.79
525.14	2344.92
525.34	2670.55
525.54	2396.12
525.74	2293.72
525.94	2424.80
526.14	2576.34
526.34	2492.38
526.55	2279.39
526.75	2523.10
526.95	2303.96
527.15	2469.85
527.35	2197.47
527.55	2428.89
527.75	2531.29
527.95	2334.68
528.15	2361.31
528.35	2355.16
528.55	2484.19
528.75	2260.96
528.96	2299.87
529.16	2330.59
529.36	2445.27
529.56	2408.41
529.76	2334.68
529.96	2346.97
530.16	2691.03
530.36	2328.54
530.56	2467.80
530.76	2449.37
530.96	2152.42
531.16	2674.65
531.36	2496.47
531.56	2846.68
531.76	2475.99
531.96	2355.16
532.17	2396.12
532.37	2340.83
532.57	2275.29
532.77	2424.80
532.97	2314.20
533.17	2559.96
533.37	2406.36
533.57	2447.32
533.77	2469.85
533.97	2650.07
534.17	2486.23
534.37	2478.04
534.57	2629.59
534.77	2469.85
534.97	2136.03
535.17	2379.74
535.37	2396.12
535.57	2473.95
535.77	2633.69
535.97	2242.53
536.17	2322.40
536.37	2467.80
536.57	2729.94
536.77	2361.31
536.97	2174.94
537.17	2490.33
537.37	2215.90
537.57	2234.33
537.77	2570.20
537.97	2385.88
538.18	2379.74
538.38	2174.94
538.58	2772.95
538.78	2361.31
538.98	2615.26
539.18	2291.68
539.38	2301.92
539.58	2303.96
539.78	2699.22
539.98	2377.69
540.18	2484.19
540.38	2557.91
540.58	2772.95
540.78	2322.40
540.98	2299.87
541.18	2383.84
541.38	2406.36
541.58	2531.29
541.77	2402.27
541.97	2559.96
542.17	2641.88
542.37	2230.24
542.57	2359.26
542.77	2441.18
542.97	2729.94
543.17	2314.20
543.37	2666.46
543.57	2312.16
543.77	2754.52
543.97	2564.06
544.17	2428.89
544.37	2277.34
544.57	2598.87
544.77	2641.88
544.97	2414.56
545.17	2521.05
545.37	2539.48
545.57	2381.79
545.77	2607.06
545.97	2611.16
546.17	2979.79
546.37	2426.84
546.57	2379.74
546.77	2723.80
546.97	2437.08
547.17	2275.29
547.37	2412.51
547.57	2465.75
547.76	2625.50
547.96	2418.65
548.16	2562.01
548.36	2383.84
548.56	2353.12
548.76	2250.72
548.96	2326.49
549.16	2428.89
549.36	2529.24
549.56	2281.44
549.76	2998.23
549.96	2400.22
550.16	2486.23
550.36	2461.66
550.56	2557.91
550.75	2500.57
550.95	2615.26
551.15	2318.30
551.35	2240.48
551.55	2498.52
551.75	2691.03
551.95	2498.52
552.15	2160.61
552.35	2639.83
552.55	2514.91
552.75	2324.44
552.95	2205.66
553.14	2447.32
553.34	2734.04
553.54	2432.99
553.74	2465.75
553.94	2281.44
554.14	2369.50
554.34	2590.68
554.54	2516.95
554.74	2553.82
554.94	2590.68
555.13	2500.57
555.33	2109.41
555.53	2342.88
555.73	2473.95
555.93	2195.42
556.13	2674.65
556.33	2654.17
556.53	2813.91
556.73	2232.29
556.92	2598.87
557.12	2592.73
557.32	2426.84
557.52	2166.75
557.72	2408.41
557.92	2582.49
558.12	2586.58
558.32	2629.59
558.51	2602.97
558.71	2510.81
558.91	2852.82
559.11	2506.71
559.31	2559.96
559.51	2496.47
559.71	2551.77
559.91	2349.02
560.10	2297.82
560.30	2768.85
560.50	2576.34
560.70	2310.11
560.90	2480.09
561.10	2473.95
561.29	2764.76
561.49	2234.33
561.69	2346.97
561.89	2519.00
562.09	2588.63
562.29	2502.62
562.49	2271.20
562.68	2566.10
562.88	2838.48
563.08	2523.10
563.28	2379.74
563.48	2533.34
563.68	2750.42
563.87	2578.39
564.07	2330.59
564.27	2400.22
564.47	2621.40
564.67	2224.09
564.87	2256.86
565.06	2447.32
565.26	2490.33
565.46	2451.42
565.66	2248.67
565.86	2897.88
566.05	2369.50
566.25	2248.67
566.45	2316.25
566.65	2631.64
566.85	2504.67
567.05	2168.80
567.24	2297.82
567.44	2363.36
567.64	2662.36
567.84	2254.81
568.04	2273.25
568.23	2670.55
568.43	2912.21
568.63	2093.02
568.83	2435.03
569.03	2478.04
569.22	2662.36
569.42	2500.57
569.62	2400.22
569.82	2580.44
570.02	2572.25
570.21	2383.84
570.41	2346.97
570.61	2473.95
570.81	2662.36
571.00	2402.27
571.20	2234.33
571.40	2760.66
571.60	2648.02
571.80	2320.35
571.99	2357.21
572.19	2586.58
572.39	2668.50
572.59	2277.34
572.78	2191.33
572.98	2455.51
573.18	2578.39
573.38	2297.82
573.57	2562.01
573.77	2496.47
573.97	2582.49
574.17	2226.14
574.36	2496.47
574.56	2430.94
574.76	2441.18
574.96	2240.48
575.15	2537.43
575.35	2428.89
575.55	2555.86
575.75	2584.54
575.94	2525.15
576.14	2549.72
576.34	2697.17
576.54	2324.44
576.73	2308.06
576.93	2537.43
577.13	2463.71
577.33	2641.88
577.52	2408.41
577.72	2344.92
577.92	2416.60
578.12	2191.33
578.31	2764.76
578.51	2930.64
578.71	2754.52
578.90	2291.68
579.10	2684.89
579.30	2641.88
579.50	2527.19
579.69	2279.39
579.89	2428.89
580.09	2695.13
580.29	2502.62
580.48	2525.15
580.68	2220.00
580.88	2617.30
581.07	2308.06
581.27	2377.69
581.47	2504.67
581.66	2486.23
581.86	2987.99
582.06	2338.78
582.26	2473.95
582.45	2351.07
582.65	2801.62
582.85	2389.98
583.04	2271.20
583.24	2600.92
583.44	2326.49
583.63	2367.45
583.83	2375.64
584.03	2471.90
584.22	2795.48
584.42	2336.73
584.62	2408.41
584.82	2559.96
585.01	2682.84
585.21	2424.80
585.41	2256.86
585.60	2510.81
585.80	2351.07
586.00	2357.21
586.19	2240.48
586.39	2269.15
586.59	2523.10
586.78	2273.25
586.98	2428.89
587.18	2455.51
587.37	2729.94
587.57	2338.78
587.77	2432.99
587.96	2418.65
588.16	2580.44
588.36	2209.76
588.55	2238.43
588.75	2879.44
588.94	2502.62
589.14	2191.33
589.34	2465.75
589.53	2711.51
589.73	2424.80
589.93	2283.49
590.12	2156.51
590.32	2484.19
590.52	2738.13
590.71	2346.97
590.91	2234.33
591.11	2488.28
591.30	2580.44
591.50	2187.23
591.69	2148.32
591.89	2691.03
592.09	2617.30
592.28	2318.30
592.48	2394.08
592.68	2670.55
592.87	2523.10
593.07	2293.72
593.26	2254.81
593.46	2363.36
593.66	2762.71
593.85	2316.25
594.05	2351.07
594.24	2443.23
594.44	2453.47
594.64	2557.91
594.83	2101.22
595.03	2883.54
595.23	2445.27
595.42	2324.44
595.62	2340.83
595.81	2572.25
596.01	2389.98
596.20	2289.63
596.40	2299.87
596.60	2338.78
596.79	2844.63
596.99	2201.57
597.18	2117.60
597.38	2629.59
597.58	2500.57
597.77	2068.45
597.97	2093.02
598.16	2549.72
598.36	2713.56
598.56	1992.67
598.75	2637.78
598.95	2613.21
599.14	2617.30
599.34	2435.03
599.53	2224.09
599.73	2617.30
599.93	2754.52
600.12	2416.60
600.32	2559.96
600.51	2527.19
600.71	2377.69
600.90	2430.94
601.10	2396.12
601.29	2772.95
601.49	2752.47
601.69	2211.81
601.88	2508.76
602.08	2654.17
602.27	2641.88
602.47	2144.22
602.66	2162.66
602.86	2748.37
603.05	2756.57
603.25	2340.83
603.45	2471.90
603.64	2766.81
603.84	2420.70
604.03	2088.93
604.23	2422.75
604.42	2568.15
604.62	2574.30
604.81	2215.90
605.01	2695.13
605.20	2805.72
605.40	2424.80
605.59	2123.74
605.79	2404.32
605.98	2437.08
606.18	2602.97
606.37	2650.07
606.57	2387.93
606.77	2504.67
606.96	2400.22
607.16	2111.46
607.35	2230.24
607.55	2535.39
607.74	2697.17
607.94	2320.35
608.13	2338.78
608.33	2449.37
608.52	2506.71
608.72	2301.92
608.91	2320.35
609.11	2404.32
609.30	2691.03
609.50	2269.15
609.69	2183.13
609.89	2600.92
610.08	2731.99
610.28	2209.76
610.47	2297.82
610.67	2449.37
610.86	2658.26
611.06	2592.73
611.25	2349.02
611.44	2539.48
611.64	2639.83
611.83	2480.09
612.03	2314.20
612.22	2441.18
612.42	2504.67
612.61	2220.00
612.81	2240.48
613.00	2588.63
613.20	2535.39
613.39	2179.04
613.59	2342.88
613.78	2480.09
613.98	2820.05
614.17	2437.08
614.37	2473.95
614.56	2498.52
614.75	2469.85
614.95	2285.53
615.14	2269.15
615.34	2285.53
615.53	2883.54
615.73	2645.98
615.92	2334.68
616.12	2359.26
616.31	2435.03
616.50	2480.09
616.70	2285.53
616.89	2469.85
617.09	2729.94
617.28	2361.31
617.48	2461.66
617.67	2529.24
617.87	2725.85
618.06	2293.72
618.25	2105.31
618.45	2490.33
618.64	2824.15
618.84	2439.13
619.03	2437.08
619.23	2432.99
619.42	2246.62
619.61	2467.80
619.81	2447.32
620.00	2512.86
620.20	2627.54
620.39	2527.19
620.58	2267.10
620.78	2314.20
620.97	2549.72
621.17	2170.85
621.36	2099.17
621.55	2676.70
621.75	2519.00
621.94	2441.18
622.14	2080.74
622.33	2222.05
622.52	2611.16
622.72	2015.20
622.91	2359.26
623.11	2525.15
623.30	2412.51
623.49	2469.85
623.69	2295.77
623.88	2426.84
624.08	2680.79
624.27	2406.36
624.46	2295.77
624.66	2353.12
624.85	2721.75
625.05	2392.03
625.24	2256.86
625.43	2451.42
625.63	2488.28
625.82	2207.71
626.01	2107.36
626.21	2590.68
626.40	2596.82
626.59	2254.81
626.79	2519.00
626.98	2547.67
627.18	2275.29
627.37	2443.23
627.56	2148.32
627.76	2437.08
627.95	2551.77
628.14	2125.79
628.34	2363.36
628.53	2580.44
628.72	2467.80
628.92	2256.86
629.11	2467.80
629.30	2359.26
629.50	2236.38
629.69	2336.73
629.88	2453.47
630.08	2572.25
630.27	2346.97
630.46	2289.63
630.66	2312.16
630.85	2291.68
631.04	2537.43
631.24	2463.71
631.43	2265.05
631.62	2459.61
631.82	2627.54
632.01	2240.48
632.20	2244.57
632.40	3100.62
632.59	2527.19
632.78	2314.20
632.98	2195.42
633.17	2486.23
633.36	2682.84
633.56	2187.23
633.75	2172.89
633.94	2297.82
634.14	2775.00
634.33	2244.57
634.52	2398.17
634.71	2510.81
634.91	2668.50
635.10	2418.65
635.29	2238.43
635.49	2502.62
635.68	2449.37
635.87	2265.05
636.07	2197.47
636.26	2381.79
636.45	2777.05
636.64	2383.84
636.84	2396.12
637.03	2582.49
637.22	2490.33
637.42	2332.64
637.61	2203.61
637.80	2564.06
637.99	2430.94
638.19	2230.24
638.38	2330.59
638.57	2516.95
638.76	2486.23
638.96	2222.05
639.15	2545.63
639.34	2410.46
639.54	2258.91
639.73	2211.81
639.92	2146.27
640.11	2129.89
640.31	2441.18
640.50	2222.05
640.69	2377.69
640.88	2469.85
641.08	2490.33
641.27	2164.70
641.46	2346.97
641.65	2113.50
641.85	2371.55
642.04	2555.86
642.23	2164.70
642.42	2369.50
642.62	2437.08
642.81	2140.13
643.00	2578.39
643.19	2445.27
643.38	2330.59
643.58	2064.35
643.77	2201.57
643.96	2502.62
644.15	2533.34
644.35	2148.32
644.54	2011.11
644.73	2555.86
644.92	2392.03
645.12	2506.71
645.31	2146.27
645.50	2387.93
645.69	2316.25
645.88	2170.85
646.08	2232.29
646.27	2127.84
646.46	2234.33
646.65	2332.64
646.84	2209.76
647.04	2576.34
647.23	2371.55
647.42	2326.49
647.61	2504.67
647.80	2377.69
648.00	2496.47
648.19	2150.37
648.38	2222.05
648.57	2363.36
648.76	2508.76
648.96	2244.57
649.15	2346.97
649.34	2242.53
649.53	2435.03
649.72	2070.50
649.92	2404.32
650.11	2236.38
650.30	2344.92
650.49	2074.59
650.68	2113.50
650.87	2228.19
651.07	2230.24
651.26	2310.11
651.45	2197.47
651.64	2246.62
651.83	2383.84
652.02	2080.74
652.22	2127.84
652.41	2289.63
652.60	2441.18
652.79	2029.54
652.98	2138.08
653.17	2461.66
653.37	2338.78
653.56	2193.37
653.75	2191.33
653.94	2357.21
654.13	2465.75
654.32	2142.18
654.51	2238.43
654.71	2346.97
654.90	2379.74
655.09	2142.18
655.28	2248.67
655.47	2615.26
655.66	2633.69
655.85	2232.29
656.05	2408.41
656.24	2625.50
656.43	2488.28
656.62	2273.25
656.81	2287.58
657.00	2299.87
657.19	2279.39
657.38	2076.64
657.58	2392.03
657.77	2363.36
657.96	2314.20
658.15	2183.13
658.34	2316.25
658.53	2312.16
658.72	2363.36
658.91	2187.23
659.10	2437.08
659.30	2340.83
659.49	2414.56
659.68	2285.53
659.87	2236.38
660.06	2432.99
660.25	2428.89
660.44	2314.20
660.63	2107.36
660.82	2469.85
661.01	2461.66
661.21	2129.89
661.40	2340.83
661.59	2303.96
661.78	2176.99
661.97	2136.03
662.16	2293.72
662.35	2252.77
662.54	2449.37
662.73	2238.43
662.92	2322.40
663.11	2568.15
663.30	2387.93
663.50	2207.71
663.69	2113.50
663.88	2383.84
664.07	2353.12
664.26	2138.08
664.45	2324.44
664.64	2373.60
664.83	2131.94
665.02	2150.37
665.21	2408.41
665.40	2213.85
665.59	2508.76
665.78	2342.88
665.97	2316.25
666.16	2342.88
666.35	2256.86
666.54	2103.26
666.73	2426.84
666.93	2150.37
667.12	2387.93
667.31	2482.14
667.50	2312.16
667.69	2234.33
667.88	2232.29
668.07	2228.19
668.26	2068.45
668.45	2480.09
668.64	2316.25
668.83	2133.98
669.02	2207.71
669.21	2009.06
669.40	2410.46
669.59	2336.73
669.78	2205.66
669.97	2330.59
670.16	2396.12
670.35	2252.77
670.54	2197.47
670.73	2394.08
670.92	2166.75
671.11	2367.45
671.30	2295.77
671.49	2609.11
671.68	2375.64
671.87	2174.94
672.06	2236.38
672.25	2432.99
672.44	2527.19
672.63	2009.06
672.82	2269.15
673.01	2271.20
673.20	2545.63
673.39	2226.14
673.58	2123.74
673.77	2066.40
673.96	2191.33
674.15	2205.66
674.34	2314.20
674.53	2508.76
674.72	2426.84
674.91	2404.32
675.10	2275.29
675.29	2293.72
675.48	2127.84
675.67	2093.02
675.86	2260.96
676.05	2230.24
676.24	2240.48
676.43	2267.10
676.62	2445.27
676.81	2418.65
677.00	2564.06
677.19	2007.01
677.38	2183.13
677.57	2422.75
677.75	2459.61
677.94	2232.29
678.13	2133.98
678.32	2441.18
678.51	2674.65
678.70	2033.63
678.89	2361.31
679.08	2168.80
679.27	2371.55
679.46	2121.70
679.65	2310.11
679.84	2140.13
680.03	2240.48
680.22	2293.72
680.41	2338.78
680.60	2465.75
680.79	2519.00
680.97	2080.74
681.16	2113.50
681.35	2486.23
681.54	2258.91
681.73	2119.65
681.92	2299.87
682.11	2357.21
682.30	2340.83
682.49	2170.85
682.68	2150.37
682.87	2207.71
683.06	2410.46
683.25	2306.01
683.43	2140.13
683.62	2377.69
683.81	2371.55
684.00	2203.61
684.19	2209.76
684.38	2275.29
684.57	2420.70
684.76	2179.04
684.95	2199.52
685.14	2559.96
685.32	2338.78
685.51	2037.73
685.70	2418.65
685.89	2228.19
686.08	2277.34
686.27	2027.49
686.46	2166.75
686.65	2336.73
686.83	2289.63
687.02	2176.99
687.21	2164.70
687.40	2430.94
687.59	2299.87
687.78	2265.05
687.97	2023.39
688.16	2486.23
688.34	2482.14
688.53	2115.55
688.72	2228.19
688.91	2320.35
689.10	2449.37
689.29	2258.91
689.48	2181.09
689.66	2430.94
689.85	2553.82
690.04	2211.81
690.23	2482.14
690.42	2432.99
690.61	2416.60
690.80	2203.61
690.98	2189.28
691.17	2539.48
691.36	2887.64
691.55	2123.74
691.74	2191.33
691.93	2228.19
692.11	2238.43
692.30	2160.61
692.49	2502.62
692.68	2492.38
692.87	2252.77
693.06	1925.09
693.24	2222.05
693.43	2203.61
693.62	2234.33
693.81	2146.27
694.00	2123.74
694.19	2324.44
694.37	2379.74
694.56	1966.05
694.75	2381.79
694.94	2179.04
695.13	2131.94
695.31	2066.40
695.50	2039.78
695.69	2631.64
695.88	2508.76
696.07	2504.67
696.25	2369.50
696.44	2355.16
696.63	2668.50
696.82	2222.05
697.01	2093.02
697.19	2201.57
697.38	2445.27
697.57	2181.09
697.76	2246.62
697.95	2461.66
698.13	2314.20
698.32	2066.40
698.51	2183.13
698.70	2512.86
698.88	2267.10
699.07	2136.03
699.26	2125.79
699.45	2267.10
699.64	2432.99
699.82	2172.89
700.01	2258.91
700.20	2197.47
700.39	2500.57
700.57	2174.94
700.76	2369.50
700.95	2121.70
701.14	2621.40
701.32	2082.78
701.51	2285.53
701.70	2291.68
701.89	2285.53
702.07	2224.09
702.26	2174.94
702.45	2349.02
702.64	2467.80
702.82	2142.18
703.01	2336.73
703.20	2260.96
703.39	2281.44
703.57	2244.57
703.76	2516.95
703.95	2226.14
704.14	2308.06
704.32	2093.02
704.51	2246.62
704.70	2226.14
704.89	2344.92
705.07	2150.37
705.26	2312.16
705.45	2117.60
705.63	2248.67
705.82	2168.80
706.01	2183.13
706.20	2205.66
706.38	2322.40
706.57	2039.78
706.76	2101.22
706.94	2125.79
707.13	2293.72
707.32	2387.93
707.51	2033.63
707.69	2344.92
707.88	2678.74
708.07	2129.89
708.25	2119.65
708.44	2195.42
708.63	2056.16
708.81	2179.04
709.00	2207.71
709.19	2408.41
709.37	2185.18
709.56	2127.84
709.75	2291.68
709.94	2316.25
710.12	2258.91
710.31	2199.52
710.50	2236.38
710.68	2396.12
710.87	2381.79
711.06	2191.33
711.24	2330.59
711.43	2250.72
711.62	2576.34
711.80	2172.89
711.99	2320.35
712.18	2138.08
712.36	2373.60
712.55	2144.22
712.74	2242.53
712.92	2342.88
713.11	2500.57
713.30	2160.61
713.48	2228.19
713.67	2234.33
713.85	2363.36
714.04	2185.18
714.23	2586.58
714.41	2084.83
714.60	2308.06
714.79	2121.70
714.97	2543.58
715.16	2238.43
715.35	2492.38
715.53	2088.93
715.72	2285.53
715.91	2140.13
716.09	2357.21
716.28	2170.85
716.46	2301.92
716.65	2584.54
716.84	2521.05
717.02	2031.58
717.21	2211.81
717.40	2240.48
717.58	2125.79
717.77	2252.77
717.95	2281.44
718.14	2508.76
718.33	2475.99
718.51	2187.23
718.70	2103.26
718.88	2392.03
719.07	2191.33
719.26	2111.46
719.44	2314.20
719.63	2195.42
719.81	2240.48
720.00	2207.71
720.19	2113.50
720.37	2150.37
720.56	2387.93
720.74	2250.72
720.93	2260.96
721.12	2215.90
721.30	2396.12
721.49	2088.93
721.67	2273.25
721.86	2222.05
722.04	2502.62
722.23	2215.90
722.42	2228.19
722.60	2279.39
722.79	2420.70
722.97	2238.43
723.16	2111.46
723.34	2267.10
723.53	2314.20
723.72	2510.81
723.90	2265.05
724.09	2170.85
724.27	2543.58
724.46	2213.85
724.64	2150.37
724.83	2293.72
725.01	2306.01
725.20	2105.31
725.39	2250.72
725.57	2592.73
725.76	2334.68
725.94	2115.55
726.13	2068.45
726.31	2191.33
726.50	2342.88
726.68	2230.24
726.87	2351.07
727.05	2209.76
727.24	2271.20
727.42	2387.93
727.61	2168.80
727.80	2056.16
727.98	2519.00
728.17	2035.68
728.35	2187.23
728.54	2357.21
728.72	2326.49
728.91	2209.76
729.09	2047.97
729.28	2396.12
729.46	2441.18
729.65	2211.81
729.83	2150.37
730.02	2500.57
730.20	2342.88
730.39	2564.06
730.57	2150.37
730.76	2187.23
730.94	2584.54
731.13	2301.92
731.31	2090.98
731.50	2107.36
731.68	2320.35
731.87	2117.60
732.05	2240.48
732.24	2316.25
732.42	2314.20
732.61	2082.78
732.79	2174.94
732.98	2525.15
733.16	2408.41
733.35	2152.42
733.53	2222.05
733.71	2244.57
733.90	2269.15
734.08	2222.05
734.27	2185.18
734.45	2303.96
734.64	2312.16
734.82	2269.15
735.01	2144.22
735.19	2187.23
735.38	2375.64
735.56	2488.28
735.75	2473.95
735.93	2203.61
736.11	2381.79
736.30	2314.20
736.48	2043.87
736.67	2383.84
736.85	2334.68
737.04	2109.41
737.22	2437.08
737.41	2340.83
737.59	2029.54
737.77	2314.20
737.96	2082.78
738.14	2529.24
738.33	2482.14
738.51	2136.03
738.70	2289.63
738.88	2002.91
739.06	2461.66
739.25	2246.62
739.43	2297.82
739.62	2379.74
739.80	2355.16
739.99	2310.11
740.17	2109.41
740.35	2402.27
740.54	2258.91
740.72	2127.84
740.91	2303.96
741.09	2260.96
741.27	2457.56
741.46	2324.44
741.64	2203.61
741.83	2441.18
742.01	2336.73
742.19	2076.64
742.38	2265.05
742.56	2457.56
742.75	2488.28
742.93	2295.77
743.11	2494.43
743.30	2383.84
743.48	2213.85
743.67	2226.14
743.85	2252.77
744.03	2238.43
744.22	2506.71
744.40	2340.83
744.58	2273.25
744.77	2389.98
744.95	2375.64
745.14	1980.39
745.32	2164.70
745.50	2232.29
745.69	2377.69
745.87	1996.77
746.05	2437.08
746.24	2394.08
746.42	2166.75
746.61	2279.39
746.79	2396.12
746.97	2490.33
747.16	2418.65
747.34	2385.88
747.52	2336.73
747.71	2502.62
747.89	2312.16
748.07	2076.64
748.26	2113.50
748.44	2580.44
748.62	2297.82
748.81	2269.15
748.99	2312.16
749.17	2314.20
749.36	2398.17
749.54	2179.04
749.72	2201.57
749.91	2088.93
750.09	2420.70
750.27	2086.88
750.46	2099.17
750.64	2392.03
750.82	2265.05
751.01	2011.11
751.19	2172.89
751.37	2410.46
751.56	2482.14
751.74	2015.20
751.92	2215.90
752.10	2396.12
752.29	2107.36
752.47	2281.44
752.65	2269.15
752.84	2195.42
753.02	2150.37
753.20	2406.36
753.39	2277.34
753.57	2334.68
753.75	2494.43
753.93	2283.49
754.12	2084.83
754.30	2242.53
754.48	2373.60
754.67	2029.54
754.85	2185.18
755.03	2342.88
755.21	2744.28
755.40	2379.74
755.58	2111.46
755.76	2459.61
755.95	2334.68
756.13	2039.78
756.31	2115.55
756.49	2351.07
756.68	2336.73
756.86	2252.77
757.04	2400.22
757.22	2562.01
757.41	2506.71
757.59	2461.66
757.77	2406.36
757.95	2607.06
758.14	2344.92
758.32	2324.44
758.50	2297.82
758.68	2473.95
758.87	2521.05
759.05	2306.01
759.23	2537.43
759.41	2232.29
759.60	2467.80
759.78	2469.85
759.96	2127.84
760.14	2365.40
760.33	2199.52
760.51	2293.72
760.69	2273.25
760.87	2355.16
761.05	2326.49
761.24	2140.13
761.42	2377.69
761.60	2351.07
761.78	2549.72
761.97	2240.48
762.15	2488.28
762.33	2588.63
762.51	2400.22
762.69	2373.60
762.88	2414.56
763.06	2676.70
763.24	2406.36
763.42	2619.35
763.60	2299.87
763.79	2174.94
763.97	2414.56
764.15	2080.74
764.33	2277.34
764.51	2414.56
764.70	2473.95
764.88	2600.92
765.06	2250.72
765.24	2226.14
765.42	2580.44
765.61	2328.54
765.79	2387.93
765.97	2412.51
766.15	2478.04
766.33	2226.14
766.51	2217.95
766.70	2326.49
766.88	2504.67
767.06	2238.43
767.24	2314.20
767.42	2213.85
767.60	2404.32
767.79	2197.47
767.97	2402.27
768.15	2351.07
768.33	2549.72
768.51	2475.99
768.69	2562.01
768.88	2463.71
769.06	2402.27
769.24	2220.00
769.42	2613.21
769.60	2338.78
769.78	2265.05
769.96	2129.89
770.15	2752.47
770.33	2410.46
770.51	2531.29
770.69	2424.80
770.87	2293.72
771.05	2342.88
771.23	2387.93
771.41	2281.44
771.60	2156.51
771.78	2357.21
771.96	2400.22
772.14	2199.52
772.32	2457.56
772.50	2392.03
772.68	2373.60
772.86	2371.55
773.05	2359.26
773.23	2596.82
773.41	2402.27
773.59	2283.49
773.77	2260.96
773.95	2523.10
774.13	2529.24
774.31	2168.80
774.49	2475.99
774.68	2154.46
774.86	2738.13
775.04	2439.13
775.22	2365.40
775.40	2207.71
775.58	2256.86
775.76	2326.49
775.94	2293.72
776.12	2402.27
776.30	2557.91
776.48	2328.54
776.66	2414.56
776.85	2383.84
777.03	2600.92
777.21	2240.48
777.39	2523.10
777.57	2748.37
777.75	2310.11
777.93	2367.45
778.11	2539.48
778.29	2398.17
778.47	2353.12
778.65	2566.10
778.83	2674.65
779.01	2652.12
779.19	2519.00
779.37	2488.28
779.55	2568.15
779.74	2306.01
779.92	2539.48
780.10	2377.69
780.28	2521.05
780.46	2551.77
780.64	2594.78
780.82	2293.72
781.00	2559.96
781.18	2463.71
781.36	2605.02
781.54	2277.34
781.72	2580.44
781.90	2447.32
782.08	2199.52
782.26	2443.23
782.44	2406.36
782.62	2648.02
782.80	2645.98
782.98	2281.44
783.16	2408.41
783.34	2369.50
783.52	2613.21
783.70	2572.25
783.88	2181.09
784.06	2539.48
784.24	2525.15
784.42	2512.86
784.60	2207.71
784.78	2416.60
784.96	2437.08
785.14	2461.66
785.32	2344.92
785.50	2301.92
785.68	2684.89
785.86	2359.26
786.04	2199.52
786.22	2529.24
786.40	2435.03
786.58	2207.71
786.76	2246.62
786.94	2519.00
787.12	2293.72
787.30	2443.23
787.48	2224.09
787.66	2506.71
787.84	2402.27
788.02	2627.54
788.20	2183.13
788.38	2465.75
788.56	2852.82
788.74	2355.16
788.92	2267.10
789.10	2559.96
789.28	2723.80
789.46	2279.39
789.64	2740.18
789.82	2344.92
790.00	2457.56
790.17	2211.81
790.35	2512.86
790.53	2533.34
790.71	2691.03
790.89	2703.32
791.07	2328.54
791.25	2590.68
791.43	2346.97
791.61	2287.58
791.79	2420.70
791.97	2441.18
792.15	2504.67
792.33	2531.29
792.51	2265.05
792.69	2453.47
792.86	2566.10
793.04	2398.17
793.22	2379.74
793.40	2418.65
793.58	2469.85
793.76	2197.47
793.94	2854.87
794.12	2504.67
794.30	2471.90
794.48	2365.40
794.66	2576.34
794.84	2576.34
795.01	2441.18
795.19	2170.85
795.37	2578.39
795.55	2527.19
795.73	2652.12
795.91	2267.10
796.09	2330.59
796.27	2463.71
796.45	2269.15
796.62	2273.25
796.80	2396.12
796.98	2383.84
797.16	2551.77
797.34	2344.92
797.52	2320.35
797.70	2402.27
797.88	2592.73
798.06	2482.14
798.23	3069.91
798.41	2475.99
798.59	2361.31
798.77	2131.94
798.95	2449.37
799.13	2351.07
799.31	2615.26
799.48	2371.55
799.66	2426.84
799.84	2326.49
800.02	2527.19
800.20	2404.32
800.38	3010.51
800.56	2461.66
800.73	2533.34
800.91	2283.49
801.09	2809.81
801.27	2457.56
801.45	2451.42
801.63	2400.22
801.80	2596.82
801.98	2465.75
802.16	2306.01
802.34	2357.21
802.52	2432.99
802.70	2516.95
802.87	2471.90
803.05	2432.99
803.23	2480.09
803.41	2607.06
803.59	2590.68
803.77	2334.68
803.94	2396.12
804.12	2359.26
804.30	2392.03
804.48	2387.93
804.66	2070.50
804.83	2822.10
805.01	2303.96
805.19	2400.22
805.37	2174.94
805.55	2461.66
805.72	2420.70
805.90	2246.62
806.08	2318.30
806.26	2500.57
806.44	2602.97
806.61	2346.97
806.79	2263.01
806.97	2176.99
807.15	2478.04
807.32	2389.98
807.50	2504.67
807.68	2310.11
807.86	2531.29
808.04	2297.82
808.21	2519.00
808.39	2600.92
808.57	2473.95
808.75	2318.30
808.92	2279.39
809.10	2486.23
809.28	2510.81
809.46	2455.51
809.63	2367.45
809.81	2377.69
809.99	2629.59
810.17	2240.48
810.35	2432.99
810.52	2394.08
810.70	2400.22
810.88	2525.15
811.05	2596.82
811.23	2471.90
811.41	2822.10
811.59	2392.03
811.76	2281.44
811.94	2416.60
812.12	2404.32
812.30	2306.01
812.47	2379.74
812.65	2416.60
812.83	2723.80
813.01	2437.08
813.18	2371.55
813.36	2555.86
813.54	2658.26
813.71	2160.61
813.89	2265.05
814.07	2682.84
814.25	2510.81
814.42	2201.57
814.60	2199.52
814.78	2494.43
814.95	2809.81
815.13	2260.96
815.31	2420.70
815.49	2539.48
815.66	2576.34
815.84	2193.37
816.02	2320.35
816.19	2506.71
816.37	2428.89
816.55	2238.43
816.72	2482.14
816.90	2326.49
817.08	2369.50
817.25	2600.92
817.43	2230.24
817.61	2443.23
817.78	2439.13
817.96	2480.09
818.14	2316.25
818.32	2306.01
818.49	2519.00
818.67	2291.68
818.85	2557.91
819.02	2557.91
819.20	2488.28
819.38	2287.58
819.55	2529.24
819.73	2678.74
819.90	2770.90
820.08	2109.41
820.26	2406.36
820.43	2613.21
820.61	2576.34
820.79	2394.08
820.96	2076.64
821.14	2230.24
821.32	2467.80
821.49	2183.13
821.67	2297.82
821.85	2281.44
822.02	2338.78
822.20	2482.14
822.37	2160.61
822.55	2594.78
822.73	2695.13
822.90	2385.88
823.08	2369.50
823.26	2363.36
823.43	2521.05
823.61	2254.81
823.78	2357.21
823.96	2437.08
824.14	2723.80
824.31	2408.41
824.49	2326.49
824.67	2576.34
824.84	2496.47
825.02	2445.27
825.19	2228.19
825.37	2856.92
825.55	2400.22
825.72	2527.19
825.90	2650.07
826.07	2387.93
826.25	2684.89
826.43	2031.58
826.60	2367.45
826.78	2494.43
826.95	2600.92
827.13	2193.37
827.30	2463.71
827.48	2461.66
827.66	2502.62
827.83	2334.68
828.01	2406.36
828.18	2301.92
828.36	2494.43
828.53	2185.18
828.71	2166.75
828.89	2514.91
829.06	2559.96
829.24	2191.33
829.41	2248.67
829.59	2334.68
829.76	2408.41
829.94	2281.44
830.11	2371.55
830.29	2392.03
830.47	2641.88
830.64	2328.54
830.82	2535.39
830.99	2351.07
831.17	2432.99
831.34	2478.04
831.52	2289.63
831.69	2432.99
831.87	2529.24
832.04	2377.69
832.22	2201.57
832.40	2398.17
832.57	2559.96
832.75	2181.09
832.92	2181.09
833.10	2531.29
833.27	2615.26
833.45	2455.51
833.62	2199.52
833.80	2480.09
833.97	2559.96
834.15	2580.44
834.32	2400.22
834.50	2361.31
834.67	2785.24
834.85	2287.58
835.02	2400.22
835.20	2531.29
835.37	2856.92
835.55	2379.74
835.72	2492.38
835.90	2375.64
836.07	2516.95
836.25	2435.03
836.42	2377.69
836.60	2381.79
836.77	2623.45
836.95	2656.22
837.12	2508.76
837.30	2570.20
837.47	2310.11
837.65	2217.95
837.82	2117.60
838.00	2326.49
838.17	2402.27
838.34	2193.37
838.52	2355.16
838.69	2592.73
838.87	2588.63
839.04	2375.64
839.22	2183.13
839.39	2480.09
839.57	2437.08
839.74	2285.53
839.92	2224.09
840.09	2361.31
840.26	2637.78
840.44	2226.14
840.61	2416.60
840.79	2191.33
840.96	2217.95
841.14	2539.48
841.31	2181.09
841.49	2404.32
841.66	2551.77
841.83	2322.40
842.01	2596.82
842.18	2478.04
842.36	2506.71
842.53	2314.20
842.71	2564.06
842.88	2314.20
843.05	2504.67
843.23	2320.35
843.40	2244.57
843.58	2600.92
843.75	2504.67
843.92	2281.44
844.10	2256.86
844.27	2371.55
844.45	2502.62
844.62	2203.61
844.80	2551.77
844.97	2332.64
845.14	2602.97
845.32	2267.10
845.49	2160.61
845.66	2441.18
845.84	2363.36
846.01	2428.89
846.19	2361.31
846.36	2742.23
846.53	2832.34
846.71	2183.13
846.88	2363.36
847.06	2361.31
847.23	2426.84
847.40	2240.48
847.58	2412.51
847.75	2582.49
847.92	2928.60
848.10	2242.53
848.27	2426.84
848.45	2402.27
848.62	2596.82
848.79	1990.63
848.97	2320.35
849.14	2443.23
849.31	2258.91
849.49	2502.62
849.66	2125.79
849.83	2394.08
850.01	2789.33
850.18	2367.45
850.35	2465.75
850.53	2699.22
850.70	2645.98
850.87	2441.18
851.05	2310.11
851.22	2584.54
851.39	2934.74
851.57	2244.57
851.74	2271.20
851.91	2228.19
852.09	2381.79
852.26	2224.09
852.43	2142.18
852.61	2568.15
852.78	2480.09
852.95	2547.67
853.13	2166.75
853.30	2666.46
853.47	2684.89
853.65	2492.38
853.82	2289.63
853.99	2547.67
854.16	2572.25
854.34	2220.00
854.51	2142.18
854.68	2338.78
854.86	2602.97
855.03	2267.10
855.20	2187.23
855.38	2531.29
855.55	2551.77
855.72	1957.86
855.89	1961.95
856.07	2654.17
856.24	2404.32
856.41	2121.70
856.59	2349.02
856.76	2500.57
856.93	2645.98
857.10	2082.78
857.28	2156.51
857.45	2355.16
857.62	2570.20
857.79	2140.13
857.97	1972.19
858.14	2543.58
858.31	2533.34
858.48	2072.54
858.66	2193.37
858.83	2615.26
859.00	2523.10
859.17	2199.52
859.35	2154.46
859.52	2580.44
859.69	2502.62
859.86	2007.01
860.04	2019.30
860.21	2451.42
860.38	2691.03
860.55	2127.84
860.73	2281.44
860.90	2207.71
861.07	2797.53
861.24	2222.05
861.42	2131.94
861.59	2359.26
861.76	2488.28
861.93	2000.87
862.10	2086.88
862.28	2680.79
862.45	2557.91
862.62	2181.09
862.79	2355.16
862.96	2410.46
863.14	2557.91
863.31	2166.75
863.48	2496.47
863.65	2367.45
863.83	2645.98
864.00	2484.19
864.17	1984.48
864.34	2658.26
864.51	2359.26
864.68	2090.98
864.86	2422.75
865.03	2392.03
865.20	2664.41
865.37	2258.91
865.54	2281.44
865.72	2514.91
865.89	2494.43
866.06	2254.81
866.23	2473.95
866.40	2535.39
866.57	2764.76
866.75	2310.11
866.92	2082.78
867.09	2424.80
867.26	2457.56
867.43	2303.96
867.60	2136.03
867.78	2396.12
867.95	2760.66
868.12	2279.39
868.29	2009.06
868.46	2586.58
868.63	2672.60
868.81	2193.37
868.98	2170.85
869.15	2637.78
869.32	2672.60
869.49	2164.70
869.66	2174.94
869.83	2615.26
870.00	2541.53
870.18	2232.29
870.35	2222.05
870.52	2486.23
870.69	2762.71
870.86	2310.11
871.03	2187.23
871.20	2443.23
871.37	2574.30
871.55	2138.08
871.72	2062.30
871.89	2467.80
872.06	2570.20
872.23	2183.13
872.40	2148.32
872.57	2793.43
872.74	2551.77
872.91	1961.95
873.09	2047.97
873.26	2740.18
873.43	2209.76
873.60	2222.05
873.77	2246.62
873.94	2609.11
874.11	2545.63
874.28	2133.98
874.45	2025.44
874.62	2531.29
874.79	2684.89
874.97	2213.85
875.14	2240.48
875.31	2566.10
875.48	2451.42
875.65	2062.30
875.82	2465.75
875.99	2498.52
876.16	2588.63
876.33	2162.66
876.50	2531.29
876.67	3084.24
876.84	2543.58
877.01	2238.43
877.18	2461.66
877.35	2547.67
877.53	2484.19
877.70	2248.67
877.87	2240.48
878.04	2473.95
878.21	2639.83
878.38	2162.66
878.55	2207.71
878.72	2521.05
878.89	2740.18
879.06	2203.61
879.23	2301.92
879.40	2445.27
879.57	2705.37
879.74	2121.70
879.91	2369.50
880.08	2432.99
880.25	2545.63
880.42	2058.21
880.59	2121.70
880.76	2424.80
880.93	2770.90
881.10	1986.53
881.27	2230.24
881.44	2367.45
881.61	2848.72
881.78	1968.10
881.95	2437.08
882.12	2461.66
882.29	2519.00
882.46	2289.63
882.63	2205.66
882.80	2586.58
882.97	2557.91
883.14	2232.29
883.31	2113.50
883.48	2541.53
883.65	2580.44
883.82	2060.26
883.99	2377.69
884.16	2973.65
884.33	2678.74
884.50	2156.51
884.67	2144.22
884.84	2768.85
885.01	2342.88
885.18	2203.61
885.35	2045.92
885.52	2779.09
885.69	2490.33
885.86	2326.49
886.03	2060.26
886.20	2934.74
886.37	2537.43
886.54	2349.02
886.71	2086.88
886.87	2924.50
887.04	2551.77
887.21	2240.48
887.38	2084.83
887.55	2273.25
887.72	2519.00
887.89	2283.49
888.06	1998.82
888.23	2514.91
888.40	2861.01
888.57	2197.47
888.74	2258.91
888.91	2445.27
889.08	2291.68
889.25	2193.37
889.42	2047.97
889.58	2734.04
889.75	2871.25
889.92	2097.12
890.09	2365.40
890.26	3770.31
890.43	2416.60
890.60	2316.25
890.77	2121.70
890.94	2443.23
891.11	2400.22
891.28	2002.91
891.44	2226.14
891.61	2568.15
891.78	2285.53
891.95	2215.90
892.12	2353.12
892.29	2467.80
892.46	2801.62
892.63	2340.83
892.80	2084.83
892.96	2523.10
893.13	2508.76
893.30	2445.27
893.47	2324.44
893.64	2762.71
893.81	2312.16
893.98	2052.06
894.15	2203.61
894.31	2549.72
894.48	2473.95
894.65	2179.04
894.82	2584.54
894.99	2684.89
895.16	2412.51
895.33	2609.11
895.49	2340.83
895.66	2344.92
895.83	2557.91
896.00	1957.86
896.17	2070.50
896.34	2404.32
896.50	2621.40
896.67	2105.31
896.84	2115.55
897.01	2435.03
897.18	2412.51
897.35	2187.23
897.51	2203.61
897.68	2631.64
897.85	2775.00
898.02	2197.47
898.19	1970.15
898.36	2404.32
898.52	2922.45
898.69	2537.43
898.86	2459.61
899.03	2324.44
899.20	2521.05
899.36	2144.22
899.53	2107.36
899.70	2371.55
899.87	2471.90
900.04	2060.26
900.20	2488.28
900.37	2521.05
900.54	2418.65
900.71	2140.13
900.88	2453.47
901.04	2392.03
901.21	2392.03
901.38	2183.13
901.55	2154.46
901.72	2238.43
901.88	2459.61
902.05	2170.85
902.22	2244.57
902.39	2629.59
902.55	2394.08
902.72	2140.13
902.89	2043.87
903.06	2338.78
903.23	2449.37
903.39	2185.18
903.56	2082.78
903.73	2682.84
903.90	2215.90
904.06	2308.06
904.23	2146.27
904.40	2523.10
904.57	2697.17
904.73	2281.44
904.90	2359.26
905.07	2535.39
905.24	2414.56
905.40	2047.97
905.57	2101.22
905.74	2746.33
905.91	2246.62
906.07	2254.81
906.24	2301.92
906.41	2594.78
906.57	2627.54
906.74	2154.46
906.91	2193.37
907.08	2445.27
907.24	2584.54
907.41	2351.07
907.58	2183.13
907.75	2453.47
907.91	2459.61
908.08	2494.43
908.25	2310.11
908.41	2553.82
908.58	2680.79
908.75	2226.14
908.91	2256.86
909.08	2494.43
909.25	2437.08
909.42	2277.34
>>>>>End Processed Spectral Data<<<<<
